Time and date,Fc5,Fc3,Fc1,Fcz,Fc2,Fc4,Fc6,C5,C3,C1,Cz,C2,C4,C6,Cp5,Cp3,Cp1,Cpz,Cp2,Cp4,Cp6,Fp1,Fpz,Fp2,Af7,Af3,Afz,Af4,Af8,F7,F5,F3,F1,Fz,F2,F4,F6,F8,Ft7,Ft8,T7,T8,T9,T10,Tp7,Tp8,P7,P5,P3,P1,Pz,P2,P4,P6,P8,Po7,Po3,Poz,Po4,Po8,O1,Oz,O2,Iz,EDF Annotations
16:15:00.000 12/08/2009,7.0,-19.0,-21.0,-32.0,-31.0,-4.0,-15.0,-37.0,-38.0,-32.0,-19.0,-19.0,-14.0,-44.0,-25.0,-41.0,-39.0,-25.0,-46.0,-1.0,-56.0,-78.0,-59.0,-62.0,-55.0,-71.0,-44.0,-62.0,-42.0,-36.0,-34.0,-23.0,-32.0,-14.0,-23.0,-25.0,-31.0,-22.0,5.0,-8.0,-30.0,-3.0,-12.0,11.0,-28.0,6.0,-19.0,-13.0,-25.0,-22.0,-30.0,-62.0,-3.0,13.0,-26.0,-9.0,-23.0,27.0,-35.0,-40.0,-18.0,-18.0,-26.0,-40.0,12331.0
16:15:00.006 12/08/2009,19.0,-3.0,-14.0,-26.0,-28.0,-2.0,5.0,2.0,-11.0,-15.0,-9.0,-14.0,-28.0,-26.0,-1.0,-20.0,-22.0,-17.0,-43.0,-22.0,-87.0,-59.0,-41.0,-43.0,-37.0,-52.0,-26.0,-43.0,-26.0,-29.0,-14.0,0.0,-6.0,7.0,-1.0,-3.0,-10.0,-4.0,8.0,5.0,-25.0,21.0,5.0,27.0,-1.0,21.0,9.0,20.0,10.0,8.0,-3.0,-35.0,20.0,35.0,-4.0,16.0,5.0,50.0,-12.0,-16.0,3.0,6.0,-1.0,-18.0,12331.0
16:15:00.013 12/08/2009,45.0,17.0,-1.0,-14.0,-17.0,8.0,11.0,-6.0,2.0,-6.0,1.0,-2.0,-18.0,-19.0,17.0,-5.0,-11.0,-10.0,-28.0,0.0,-48.0,-56.0,-42.0,-45.0,-36.0,-53.0,-32.0,-47.0,-32.0,-27.0,-17.0,-4.0,-15.0,-3.0,-13.0,-17.0,-20.0,-6.0,3.0,16.0,-36.0,2.0,4.0,26.0,-2.0,2.0,4.0,13.0,0.0,-1.0,-11.0,-29.0,30.0,42.0,-4.0,2.0,-6.0,41.0,-13.0,-18.0,-5.0,-3.0,-7.0,-25.0,5140.0
16:15:00.019 12/08/2009,34.0,-11.0,-25.0,-37.0,-38.0,-17.0,-26.0,-23.0,-27.0,-31.0,-22.0,-23.0,-36.0,-48.0,2.0,-24.0,-27.0,-30.0,-53.0,-20.0,-64.0,-76.0,-53.0,-56.0,-50.0,-70.0,-45.0,-54.0,-34.0,-37.0,-34.0,-24.0,-33.0,-17.0,-25.0,-26.0,-18.0,-4.0,37.0,19.0,12.0,18.0,14.0,30.0,3.0,34.0,1.0,2.0,-18.0,-14.0,-20.0,-40.0,19.0,22.0,-4.0,7.0,-7.0,44.0,-24.0,-19.0,1.0,2.0,-6.0,-17.0,5140.0
16:15:00.025 12/08/2009,4.0,-27.0,-30.0,-37.0,-31.0,0.0,7.0,-29.0,-42.0,-39.0,-24.0,-20.0,-26.0,-27.0,-19.0,-41.0,-34.0,-30.0,-53.0,-17.0,-63.0,-60.0,-36.0,-41.0,-38.0,-60.0,-33.0,-41.0,-23.0,-24.0,-27.0,-18.0,-24.0,-10.0,-14.0,-16.0,-11.0,-2.0,46.0,8.0,21.0,16.0,25.0,37.0,5.0,35.0,12.0,17.0,-6.0,-3.0,-12.0,-45.0,25.0,26.0,-3.0,17.0,2.0,53.0,-23.0,-17.0,6.0,5.0,-2.0,-17.0,11008.0
16:15:00.031 12/08/2009,6.0,-20.0,-28.0,-44.0,-40.0,-14.0,-8.0,-25.0,-25.0,-40.0,-36.0,-34.0,-36.0,-36.0,-8.0,-28.0,-35.0,-37.0,-55.0,-16.0,-59.0,-71.0,-51.0,-60.0,-51.0,-69.0,-45.0,-56.0,-43.0,-36.0,-30.0,-24.0,-31.0,-20.0,-29.0,-31.0,-26.0,-16.0,25.0,6.0,-28.0,-7.0,-1.0,21.0,-12.0,16.0,0.0,9.0,-14.0,-5.0,-18.0,-49.0,20.0,24.0,-9.0,4.0,-6.0,46.0,-24.0,-24.0,-1.0,-1.0,-8.0,-27.0,11008.0
16:15:00.038 12/08/2009,30.0,9.0,-17.0,-42.0,-37.0,-12.0,-6.0,0.0,4.0,-23.0,-29.0,-32.0,-31.0,-30.0,4.0,-12.0,-23.0,-27.0,-43.0,-5.0,-52.0,-71.0,-47.0,-53.0,-42.0,-57.0,-35.0,-49.0,-36.0,-29.0,-15.0,-6.0,-16.0,-4.0,-16.0,-18.0,-13.0,-3.0,45.0,21.0,14.0,19.0,8.0,35.0,23.0,29.0,18.0,18.0,-3.0,11.0,-4.0,-24.0,31.0,40.0,6.0,31.0,14.0,61.0,-8.0,-11.0,23.0,21.0,10.0,-3.0,5424.0
16:15:00.044 12/08/2009,42.0,8.0,-4.0,-28.0,-15.0,6.0,10.0,8.0,4.0,-12.0,-11.0,-16.0,-16.0,-15.0,21.0,-6.0,-5.0,-14.0,-26.0,5.0,-39.0,-58.0,-36.0,-46.0,-26.0,-47.0,-27.0,-44.0,-32.0,-7.0,-6.0,-5.0,-14.0,-2.0,-9.0,-13.0,-11.0,-7.0,73.0,13.0,30.0,18.0,21.0,33.0,16.0,36.0,21.0,29.0,0.0,6.0,-12.0,-29.0,20.0,29.0,-3.0,18.0,3.0,48.0,-20.0,-21.0,7.0,4.0,-1.0,-17.0,5424.0
16:15:00.050 12/08/2009,25.0,-14.0,-23.0,-43.0,-31.0,-10.0,3.0,-36.0,-11.0,-26.0,-31.0,-33.0,-32.0,-26.0,12.0,-14.0,-21.0,-34.0,-49.0,-14.0,-55.0,-78.0,-51.0,-62.0,-43.0,-63.0,-44.0,-58.0,-43.0,-32.0,-26.0,-20.0,-26.0,-14.0,-18.0,-20.0,-19.0,-18.0,18.0,-13.0,-23.0,-18.0,9.0,26.0,-3.0,12.0,1.0,4.0,-17.0,-11.0,-24.0,-39.0,17.0,20.0,-12.0,2.0,-10.0,42.0,-23.0,-29.0,1.0,1.0,-7.0,-21.0,12342.0
16:15:00.056 12/08/2009,27.0,-5.0,-14.0,-31.0,-21.0,4.0,16.0,-9.0,-16.0,-24.0,-21.0,-16.0,-16.0,-8.0,-7.0,-25.0,-19.0,-24.0,-40.0,0.0,-33.0,-63.0,-30.0,-37.0,-26.0,-47.0,-27.0,-39.0,-18.0,-22.0,-12.0,-8.0,-12.0,2.0,-3.0,-6.0,2.0,15.0,54.0,35.0,24.0,24.0,34.0,40.0,25.0,39.0,20.0,17.0,-4.0,1.0,-6.0,-25.0,35.0,36.0,4.0,24.0,6.0,53.0,-6.0,-19.0,16.0,15.0,4.0,-7.0,12342.0
16:15:00.063 12/08/2009,35.0,-3.0,-7.0,-24.0,-22.0,-9.0,-23.0,-12.0,-12.0,-21.0,-16.0,-16.0,-30.0,-42.0,5.0,-19.0,-12.0,-24.0,-44.0,-18.0,-54.0,-76.0,-42.0,-51.0,-40.0,-57.0,-41.0,-57.0,-34.0,-33.0,-27.0,-22.0,-26.0,-14.0,-21.0,-25.0,-26.0,-19.0,31.0,21.0,-7.0,29.0,6.0,33.0,1.0,19.0,5.0,10.0,-12.0,-9.0,-21.0,-39.0,23.0,23.0,-13.0,1.0,-12.0,34.0,-17.0,-32.0,-5.0,-7.0,-14.0,-29.0,12846.0
16:15:00.069 12/08/2009,20.0,-15.0,-20.0,-38.0,-39.0,-25.0,-33.0,-18.0,-10.0,-25.0,-26.0,-26.0,-39.0,-24.0,11.0,-20.0,-14.0,-34.0,-49.0,-24.0,-40.0,-93.0,-53.0,-59.0,-48.0,-63.0,-49.0,-61.0,-44.0,-31.0,-29.0,-24.0,-29.0,-16.0,-22.0,-23.0,-25.0,-23.0,35.0,0.0,-15.0,-5.0,4.0,23.0,-14.0,29.0,5.0,7.0,-18.0,-12.0,-23.0,-32.0,26.0,26.0,-6.0,3.0,-14.0,36.0,-12.0,-28.0,-2.0,-5.0,-11.0,-23.0,12846.0
16:15:00.075 12/08/2009,27.0,3.0,-8.0,-32.0,-27.0,-7.0,-4.0,7.0,0.0,-17.0,-22.0,-18.0,-26.0,-8.0,-4.0,-22.0,-15.0,-34.0,-58.0,-33.0,-55.0,-80.0,-45.0,-45.0,-36.0,-53.0,-41.0,-54.0,-41.0,-27.0,-22.0,-16.0,-23.0,-13.0,-22.0,-24.0,-23.0,-17.0,33.0,12.0,-21.0,18.0,10.0,40.0,-3.0,21.0,1.0,1.0,-23.0,-21.0,-34.0,-44.0,8.0,7.0,-17.0,-6.0,-25.0,23.0,-25.0,-43.0,-12.0,-16.0,-19.0,-31.0,21524.0
16:15:00.081 12/08/2009,6.0,-23.0,-32.0,-54.0,-51.0,-45.0,-52.0,-15.0,-21.0,-37.0,-42.0,-50.0,-61.0,-65.0,-10.0,-37.0,-39.0,-57.0,-85.0,-57.0,-75.0,-95.0,-59.0,-63.0,-54.0,-69.0,-60.0,-74.0,-59.0,-34.0,-37.0,-38.0,-41.0,-30.0,-39.0,-40.0,-39.0,-36.0,46.0,-8.0,-6.0,-20.0,11.0,31.0,13.0,5.0,-7.0,-19.0,-39.0,-37.0,-43.0,-48.0,3.0,8.0,-22.0,-15.0,-35.0,14.0,-29.0,-42.0,-20.0,-20.0,-24.0,-32.0,21524.0
16:15:00.088 12/08/2009,8.0,-27.0,-34.0,-50.0,-44.0,-26.0,-24.0,-35.0,-41.0,-39.0,-30.0,-39.0,-36.0,-29.0,-32.0,-53.0,-39.0,-45.0,-73.0,-32.0,-50.0,-86.0,-44.0,-45.0,-36.0,-52.0,-44.0,-52.0,-37.0,-23.0,-22.0,-18.0,-20.0,-11.0,-12.0,-14.0,-8.0,-10.0,41.0,10.0,33.0,21.0,17.0,42.0,1.0,23.0,2.0,-9.0,-30.0,-22.0,-22.0,-29.0,22.0,25.0,-3.0,3.0,-20.0,29.0,-10.0,-23.0,-5.0,-1.0,-4.0,-10.0,5168.0
16:15:00.094 12/08/2009,42.0,4.0,-12.0,-30.0,-27.0,-7.0,-6.0,-18.0,-14.0,-20.0,-14.0,-29.0,-27.0,-34.0,-11.0,-30.0,-22.0,-29.0,-66.0,-25.0,-55.0,-80.0,-37.0,-37.0,-32.0,-48.0,-40.0,-44.0,-32.0,-31.0,-30.0,-17.0,-18.0,-10.0,-14.0,-17.0,-7.0,-4.0,17.0,16.0,1.0,21.0,12.0,41.0,-14.0,8.0,1.0,3.0,-21.0,-16.0,-22.0,-32.0,26.0,33.0,-6.0,-2.0,-20.0,22.0,-13.0,-28.0,-9.0,-7.0,-7.0,-18.0,5168.0
16:15:00.100 12/08/2009,14.0,-29.0,-33.0,-48.0,-44.0,-29.0,-35.0,-42.0,-32.0,-41.0,-34.0,-42.0,-41.0,-50.0,-9.0,-38.0,-32.0,-44.0,-75.0,-31.0,-52.0,-88.0,-46.0,-53.0,-36.0,-61.0,-55.0,-61.0,-48.0,-30.0,-39.0,-35.0,-36.0,-27.0,-34.0,-36.0,-23.0,-24.0,38.0,3.0,-2.0,-10.0,5.0,33.0,-13.0,-2.0,2.0,-7.0,-34.0,-24.0,-31.0,-39.0,25.0,33.0,-5.0,-1.0,-19.0,25.0,-14.0,-27.0,-7.0,-6.0,-9.0,-18.0,0.0
16:15:00.106 12/08/2009,-2.0,-32.0,-35.0,-50.0,-46.0,-27.0,-25.0,-30.0,-26.0,-35.0,-28.0,-33.0,-33.0,-30.0,-3.0,-24.0,-21.0,-37.0,-62.0,-26.0,-52.0,-80.0,-42.0,-48.0,-26.0,-54.0,-47.0,-53.0,-34.0,-21.0,-29.0,-22.0,-26.0,-17.0,-26.0,-27.0,-14.0,-12.0,45.0,14.0,12.0,12.0,24.0,46.0,18.0,37.0,20.0,8.0,-23.0,-7.0,-20.0,-29.0,32.0,30.0,7.0,18.0,-3.0,41.0,-2.0,-16.0,10.0,10.0,5.0,-1.0,0.0
16:15:00.113 12/08/2009,25.0,-7.0,-22.0,-37.0,-39.0,-20.0,-15.0,-19.0,-14.0,-30.0,-16.0,-25.0,-26.0,-21.0,-15.0,-25.0,-15.0,-35.0,-59.0,-18.0,-50.0,-75.0,-41.0,-49.0,-18.0,-53.0,-46.0,-54.0,-33.0,-7.0,-25.0,-20.0,-25.0,-17.0,-24.0,-25.0,-13.0,-7.0,41.0,13.0,7.0,16.0,19.0,33.0,9.0,29.0,4.0,2.0,-23.0,-9.0,-25.0,-28.0,37.0,30.0,-1.0,3.0,-13.0,34.0,0.0,-22.0,-4.0,-4.0,-3.0,-19.0,0.0
16:15:00.119 12/08/2009,13.0,-7.0,-23.0,-34.0,-33.0,-9.0,7.0,-22.0,-3.0,-24.0,-10.0,-14.0,-13.0,-11.0,1.0,-10.0,-5.0,-28.0,-50.0,0.0,-31.0,-79.0,-36.0,-49.0,-20.0,-52.0,-44.0,-52.0,-37.0,-10.0,-24.0,-13.0,-18.0,-10.0,-17.0,-19.0,-11.0,-12.0,32.0,-2.0,-16.0,-5.0,7.0,27.0,-31.0,18.0,13.0,23.0,4.0,11.0,-10.0,-15.0,62.0,44.0,6.0,14.0,1.0,50.0,14.0,-14.0,5.0,5.0,2.0,-11.0,0.0
16:15:00.125 12/08/2009,54.0,32.0,4.0,-12.0,-13.0,-3.0,-14.0,20.0,23.0,2.0,9.0,3.0,-2.0,-9.0,21.0,3.0,15.0,-8.0,-31.0,10.0,-18.0,-70.0,-26.0,-40.0,-12.0,-41.0,-32.0,-43.0,-31.0,-8.0,-12.0,1.0,-10.0,-4.0,-12.0,-15.0,-5.0,-2.0,28.0,25.0,11.0,26.0,23.0,42.0,30.0,29.0,24.0,13.0,-2.0,6.0,-14.0,-23.0,56.0,43.0,6.0,16.0,-6.0,46.0,9.0,-22.0,6.0,2.0,-1.0,-9.0,0.0
16:15:00.131 12/08/2009,33.0,-10.0,-20.0,-29.0,-27.0,-15.0,-25.0,-27.0,-26.0,-29.0,-14.0,-18.0,-25.0,-12.0,-17.0,-34.0,-6.0,-32.0,-51.0,-15.0,-33.0,-82.0,-43.0,-55.0,-23.0,-59.0,-49.0,-55.0,-43.0,-18.0,-36.0,-29.0,-35.0,-22.0,-23.0,-25.0,-14.0,-13.0,39.0,11.0,-12.0,6.0,4.0,25.0,6.0,17.0,3.0,-2.0,-17.0,-8.0,-26.0,-25.0,54.0,36.0,-1.0,1.0,-14.0,43.0,7.0,-24.0,-1.0,-4.0,-6.0,-18.0,0.0
16:15:00.138 12/08/2009,9.0,-11.0,-26.0,-31.0,-26.0,-2.0,-6.0,-11.0,-11.0,-23.0,-15.0,-9.0,-7.0,15.0,4.0,-15.0,-2.0,-27.0,-44.0,1.0,-20.0,-87.0,-45.0,-51.0,-24.0,-63.0,-44.0,-48.0,-41.0,-28.0,-37.0,-21.0,-27.0,-12.0,-15.0,-17.0,-11.0,-13.0,17.0,6.0,-11.0,35.0,7.0,29.0,-17.0,24.0,7.0,12.0,-8.0,1.0,-15.0,-21.0,62.0,42.0,7.0,11.0,-4.0,50.0,22.0,-11.0,8.0,9.0,4.0,-8.0,0.0
16:15:00.144 12/08/2009,24.0,-9.0,-21.0,-29.0,-27.0,-9.0,1.0,-25.0,-13.0,-21.0,-17.0,-8.0,-25.0,-41.0,11.0,-11.0,-6.0,-27.0,-41.0,-7.0,-35.0,-81.0,-42.0,-47.0,-21.0,-68.0,-42.0,-45.0,-43.0,-31.0,-46.0,-25.0,-33.0,-15.0,-18.0,-21.0,-11.0,-18.0,5.0,23.0,-23.0,48.0,-8.0,36.0,-12.0,21.0,2.0,8.0,-11.0,-6.0,-23.0,-41.0,41.0,26.0,-5.0,-1.0,-14.0,30.0,7.0,-24.0,-5.0,-3.0,-7.0,-22.0,0.0
16:15:00.150 12/08/2009,7.0,-30.0,-37.0,-52.0,-52.0,-38.0,-39.0,-30.0,-33.0,-43.0,-35.0,-31.0,-51.0,-48.0,-16.0,-35.0,-29.0,-53.0,-66.0,-44.0,-76.0,-97.0,-59.0,-63.0,-33.0,-86.0,-57.0,-63.0,-63.0,-38.0,-58.0,-45.0,-51.0,-31.0,-37.0,-39.0,-29.0,-32.0,10.0,10.0,-21.0,12.0,-11.0,20.0,-19.0,16.0,-15.0,-13.0,-25.0,-18.0,-35.0,-49.0,28.0,20.0,-11.0,-9.0,-22.0,24.0,0.0,-24.0,-9.0,-6.0,-10.0,-24.0,0.0
16:15:00.156 12/08/2009,-25.0,-43.0,-35.0,-50.0,-44.0,-21.0,-27.0,-51.0,-36.0,-39.0,-20.0,-15.0,-22.0,-5.0,-8.0,-25.0,-11.0,-33.0,-45.0,-7.0,-34.0,-84.0,-39.0,-45.0,-20.0,-71.0,-38.0,-40.0,-48.0,-16.0,-39.0,-28.0,-29.0,-8.0,-13.0,-14.0,2.0,-4.0,22.0,29.0,-14.0,26.0,11.0,23.0,-15.0,30.0,9.0,17.0,7.0,13.0,-8.0,-16.0,58.0,42.0,6.0,14.0,2.0,44.0,20.0,-8.0,8.0,8.0,4.0,-10.0,0.0
16:15:00.163 12/08/2009,21.0,1.0,-6.0,-33.0,-30.0,-8.0,-11.0,10.0,12.0,-11.0,-7.0,-12.0,-23.0,-24.0,32.0,4.0,6.0,-21.0,-45.0,-9.0,-42.0,-81.0,-40.0,-45.0,-15.0,-65.0,-38.0,-47.0,-55.0,-15.0,-29.0,-18.0,-27.0,-11.0,-23.0,-26.0,-16.0,-29.0,-1.0,-8.0,-45.0,13.0,-16.0,25.0,-12.0,5.0,4.0,17.0,-2.0,3.0,-23.0,-30.0,40.0,21.0,-12.0,5.0,-12.0,25.0,2.0,-27.0,-8.0,-13.0,-13.0,-29.0,0.0
16:15:00.169 12/08/2009,14.0,-15.0,-24.0,-52.0,-48.0,-26.0,-37.0,-33.0,-26.0,-32.0,-22.0,-25.0,-35.0,-34.0,-2.0,-32.0,-15.0,-37.0,-53.0,-9.0,-41.0,-86.0,-43.0,-52.0,-19.0,-71.0,-43.0,-53.0,-54.0,-21.0,-41.0,-30.0,-35.0,-16.0,-23.0,-24.0,-14.0,-27.0,32.0,-2.0,26.0,-1.0,13.0,15.0,-15.0,6.0,4.0,4.0,-15.0,-3.0,-21.0,-16.0,51.0,34.0,-2.0,2.0,-13.0,33.0,14.0,-14.0,-5.0,-5.0,-6.0,-25.0,0.0
16:15:00.175 12/08/2009,1.0,-22.0,-17.0,-36.0,-27.0,0.0,-15.0,-41.0,-34.0,-25.0,-6.0,-9.0,-12.0,-4.0,-12.0,-35.0,-9.0,-26.0,-36.0,2.0,-34.0,-69.0,-24.0,-30.0,-6.0,-53.0,-24.0,-32.0,-33.0,-7.0,-27.0,-15.0,-17.0,-2.0,-2.0,-5.0,8.0,-2.0,27.0,25.0,17.0,39.0,9.0,26.0,20.0,19.0,3.0,-6.0,-12.0,1.0,-19.0,-9.0,47.0,30.0,-1.0,-12.0,-18.0,30.0,21.0,-12.0,-11.0,-9.0,-5.0,-34.0,0.0
16:15:00.181 12/08/2009,26.0,-4.0,-8.0,-30.0,-23.0,-1.0,-7.0,-15.0,-6.0,-15.0,-7.0,-16.0,-22.0,1.0,1.0,-23.0,-3.0,-26.0,-44.0,-14.0,-39.0,-80.0,-35.0,-39.0,-20.0,-59.0,-31.0,-37.0,-43.0,-24.0,-37.0,-16.0,-22.0,-6.0,-7.0,-10.0,-1.0,-13.0,-31.0,16.0,-51.0,28.0,-20.0,16.0,-16.0,15.0,-10.0,-5.0,-9.0,-1.0,-27.0,-15.0,44.0,20.0,-5.0,-17.0,-24.0,22.0,17.0,-21.0,-23.0,-21.0,-17.0,-48.0,0.0
16:15:00.188 12/08/2009,21.0,-5.0,-10.0,-30.0,-24.0,-4.0,-19.0,-16.0,-5.0,-14.0,-4.0,-10.0,-18.0,-4.0,5.0,-20.0,-5.0,-22.0,-43.0,-7.0,-31.0,-81.0,-35.0,-36.0,-20.0,-59.0,-26.0,-35.0,-41.0,-19.0,-36.0,-23.0,-24.0,-3.0,-4.0,-6.0,0.0,-10.0,27.0,9.0,-5.0,16.0,-2.0,23.0,-17.0,5.0,-2.0,1.0,-5.0,3.0,-21.0,-8.0,59.0,30.0,3.0,-8.0,-21.0,29.0,20.0,-12.0,-15.0,-11.0,-8.0,-32.0,0.0
16:15:00.194 12/08/2009,-7.0,-32.0,-13.0,-20.0,-12.0,16.0,7.0,-42.0,-26.0,-16.0,7.0,6.0,0.0,5.0,-1.0,-23.0,-5.0,-12.0,-35.0,13.0,-10.0,-66.0,-26.0,-26.0,-10.0,-51.0,-18.0,-29.0,-33.0,-4.0,-33.0,-18.0,-20.0,1.0,-3.0,-6.0,1.0,-2.0,25.0,13.0,-19.0,20.0,2.0,23.0,-2.0,3.0,-2.0,4.0,1.0,4.0,-24.0,-17.0,51.0,23.0,-1.0,-8.0,-22.0,22.0,7.0,-21.0,-16.0,-17.0,-17.0,-36.0,0.0
16:15:00.200 12/08/2009,22.0,-9.0,-14.0,-31.0,-33.0,-9.0,-32.0,5.0,-4.0,-14.0,-1.0,-18.0,-33.0,-29.0,16.0,-12.0,-8.0,-24.0,-56.0,-26.0,-56.0,-82.0,-43.0,-44.0,-26.0,-64.0,-34.0,-48.0,-54.0,-24.0,-44.0,-23.0,-31.0,-14.0,-26.0,-29.0,-17.0,-18.0,-3.0,24.0,-22.0,29.0,-10.0,18.0,-16.0,23.0,-6.0,-6.0,-16.0,-9.0,-40.0,-39.0,18.0,-18.0,-19.0,-11.0,-30.0,13.0,-10.0,-41.0,-25.0,-26.0,-31.0,-48.0,0.0
16:15:00.206 12/08/2009,11.0,-18.0,-21.0,-36.0,-39.0,-20.0,-43.0,-42.0,-25.0,-23.0,-1.0,-18.0,-36.0,-32.0,-18.0,-29.0,-8.0,-20.0,-47.0,-23.0,-47.0,-69.0,-24.0,-27.0,-3.0,-46.0,-17.0,-33.0,-39.0,-2.0,-24.0,-11.0,-16.0,1.0,-9.0,-10.0,2.0,-5.0,50.0,25.0,26.0,17.0,22.0,26.0,5.0,21.0,2.0,-1.0,-9.0,3.0,-18.0,-13.0,50.0,11.0,-2.0,1.0,-13.0,33.0,15.0,-19.0,-5.0,-4.0,-8.0,-28.0,0.0
16:15:00.213 12/08/2009,16.0,-10.0,-9.0,-18.0,-14.0,7.0,-16.0,-15.0,-14.0,-8.0,10.0,2.0,-6.0,1.0,-3.0,-16.0,-2.0,-5.0,-32.0,8.0,-2.0,-67.0,-21.0,-27.0,-3.0,-45.0,-15.0,-32.0,-43.0,-5.0,-25.0,-5.0,-14.0,3.0,-3.0,-6.0,-1.0,-15.0,44.0,11.0,4.0,1.0,7.0,10.0,8.0,10.0,0.0,0.0,-8.0,3.0,-20.0,-13.0,53.0,15.0,-6.0,-6.0,-18.0,27.0,8.0,-24.0,-11.0,-13.0,-16.0,-37.0,0.0
16:15:00.219 12/08/2009,12.0,-12.0,-14.0,-28.0,-19.0,0.0,-25.0,-21.0,-9.0,-12.0,-3.0,-13.0,-13.0,-2.0,3.0,-15.0,-3.0,-14.0,-46.0,-7.0,-34.0,-78.0,-34.0,-44.0,-6.0,-53.0,-24.0,-44.0,-57.0,-12.0,-34.0,-8.0,-18.0,1.0,-10.0,-12.0,-11.0,-29.0,7.0,1.0,-15.0,13.0,0.0,9.0,-43.0,17.0,-1.0,8.0,1.0,5.0,-20.0,-20.0,43.0,7.0,-5.0,3.0,-12.0,37.0,6.0,-22.0,-5.0,-6.0,-12.0,-30.0,0.0
16:15:00.225 12/08/2009,16.0,3.0,-2.0,-17.0,-7.0,10.0,-10.0,-13.0,10.0,3.0,10.0,1.0,-6.0,-1.0,26.0,4.0,15.0,1.0,-30.0,-2.0,-37.0,-58.0,-17.0,-28.0,15.0,-35.0,-7.0,-25.0,-44.0,8.0,-13.0,8.0,-3.0,15.0,8.0,5.0,11.0,-7.0,26.0,29.0,-7.0,42.0,11.0,19.0,23.0,27.0,17.0,13.0,11.0,16.0,-6.0,-9.0,69.0,23.0,11.0,14.0,-4.0,46.0,15.0,-11.0,7.0,4.0,3.0,-20.0,0.0
16:15:00.231 12/08/2009,21.0,8.0,3.0,-12.0,-1.0,18.0,7.0,10.0,7.0,-3.0,8.0,7.0,6.0,7.0,6.0,-11.0,6.0,-3.0,-33.0,12.0,-15.0,-69.0,-26.0,-35.0,-6.0,-52.0,-20.0,-32.0,-49.0,-27.0,-36.0,-6.0,-19.0,-1.0,-6.0,-10.0,-2.0,-19.0,-13.0,10.0,-29.0,20.0,-24.0,10.0,-2.0,10.0,-8.0,-12.0,-13.0,-8.0,-27.0,-26.0,44.0,2.0,-13.0,-9.0,-27.0,22.0,-13.0,-35.0,-13.0,-17.0,-20.0,-41.0,0.0
16:15:00.238 12/08/2009,17.0,-3.0,-15.0,-32.0,-25.0,-7.0,-14.0,-17.0,-13.0,-20.0,-13.0,-25.0,-32.0,-13.0,-4.0,-24.0,-14.0,-21.0,-60.0,-21.0,-43.0,-83.0,-40.0,-43.0,-14.0,-61.0,-29.0,-39.0,-57.0,-29.0,-40.0,-17.0,-29.0,-8.0,-17.0,-20.0,-10.0,-23.0,10.0,14.0,-10.0,35.0,2.0,22.0,-15.0,10.0,-1.0,-2.0,-7.0,-5.0,-26.0,-26.0,35.0,-1.0,-13.0,7.0,-15.0,34.0,-7.0,-28.0,1.0,-4.0,-11.0,-26.0,0.0
16:15:00.244 12/08/2009,9.0,-20.0,-18.0,-29.0,-25.0,-10.0,-35.0,-19.0,-28.0,-22.0,-11.0,-21.0,-35.0,-25.0,10.0,-21.0,-10.0,-14.0,-56.0,-18.0,-42.0,-62.0,-26.0,-27.0,4.0,-46.0,-16.0,-29.0,-44.0,-10.0,-31.0,-15.0,-23.0,-2.0,-10.0,-12.0,-4.0,-13.0,24.0,14.0,-2.0,20.0,7.0,25.0,-1.0,5.0,2.0,2.0,-8.0,-1.0,-24.0,-20.0,41.0,2.0,-12.0,1.0,-17.0,31.0,-5.0,-29.0,-11.0,-13.0,-12.0,-37.0,0.0
16:15:00.250 12/08/2009,-10.0,-31.0,-26.0,-34.0,-33.0,-15.0,-39.0,-31.0,-34.0,-32.0,-15.0,-24.0,-34.0,-23.0,-15.0,-36.0,-18.0,-26.0,-62.0,-17.0,-40.0,-79.0,-45.0,-41.0,-12.0,-60.0,-29.0,-41.0,-56.0,-34.0,-50.0,-29.0,-34.0,-13.0,-20.0,-22.0,-13.0,-29.0,1.0,11.0,-4.0,-7.0,-14.0,14.0,-18.0,-1.0,-13.0,-16.0,-20.0,-12.0,-33.0,-18.0,37.0,4.0,-13.0,-10.0,-23.0,30.0,-3.0,-28.0,-12.0,-13.0,-13.0,-34.0,0.0
16:15:00.256 12/08/2009,-12.0,-24.0,-18.0,-32.0,-28.0,-5.0,-16.0,-28.0,-25.0,-24.0,-5.0,-10.0,-12.0,6.0,-18.0,-27.0,-2.0,-14.0,-43.0,10.0,-9.0,-70.0,-33.0,-25.0,1.0,-49.0,-12.0,-27.0,-41.0,-31.0,-35.0,-13.0,-17.0,5.0,-2.0,-4.0,6.0,-17.0,8.0,12.0,10.0,20.0,-1.0,25.0,-2.0,8.0,6.0,4.0,6.0,12.0,-9.0,10.0,65.0,32.0,7.0,16.0,3.0,55.0,19.0,-8.0,16.0,10.0,8.0,-9.0,0.0
16:15:00.263 12/08/2009,23.0,-4.0,-1.0,-12.0,-8.0,12.0,-6.0,-10.0,-8.0,-7.0,10.0,9.0,-2.0,-14.0,4.0,-10.0,14.0,2.0,-32.0,21.0,-7.0,-59.0,-24.0,-18.0,5.0,-42.0,-5.0,-23.0,-33.0,-16.0,-23.0,-4.0,-13.0,10.0,0.0,-4.0,7.0,-4.0,15.0,37.0,-3.0,49.0,-5.0,23.0,-3.0,14.0,6.0,9.0,8.0,19.0,-7.0,14.0,50.0,22.0,3.0,7.0,-3.0,52.0,9.0,-14.0,3.0,-7.0,-2.0,-31.0,0.0
16:15:00.269 12/08/2009,11.0,-12.0,-13.0,-22.0,-17.0,2.0,-26.0,-12.0,-9.0,-12.0,3.0,3.0,-9.0,-1.0,7.0,-13.0,5.0,-3.0,-37.0,-2.0,-40.0,-74.0,-34.0,-26.0,-4.0,-53.0,-15.0,-29.0,-42.0,-23.0,-34.0,-14.0,-18.0,5.0,-4.0,-6.0,7.0,-4.0,0.0,42.0,-11.0,33.0,8.0,22.0,-12.0,37.0,10.0,14.0,12.0,25.0,-2.0,24.0,44.0,22.0,13.0,15.0,7.0,65.0,23.0,-1.0,13.0,7.0,10.0,-20.0,0.0
16:15:00.275 12/08/2009,13.0,2.0,-2.0,-13.0,-4.0,27.0,-3.0,18.0,10.0,5.0,21.0,26.0,28.0,37.0,33.0,14.0,23.0,22.0,-7.0,35.0,3.0,-63.0,-26.0,-18.0,8.0,-37.0,-2.0,-23.0,-36.0,-10.0,-17.0,8.0,-1.0,20.0,7.0,4.0,4.0,-14.0,3.0,7.0,-32.0,-12.0,-3.0,26.0,7.0,29.0,33.0,47.0,43.0,54.0,20.0,42.0,70.0,49.0,25.0,39.0,30.0,79.0,39.0,11.0,32.0,21.0,24.0,-7.0,0.0
16:15:00.281 12/08/2009,47.0,35.0,13.0,-7.0,-6.0,15.0,-22.0,44.0,36.0,14.0,25.0,17.0,4.0,10.0,56.0,29.0,22.0,13.0,-21.0,14.0,-7.0,-75.0,-41.0,-33.0,-7.0,-47.0,-14.0,-36.0,-50.0,-16.0,-26.0,3.0,-13.0,7.0,-7.0,-10.0,-6.0,-19.0,-7.0,10.0,1.0,17.0,-9.0,12.0,30.0,21.0,17.0,13.0,10.0,23.0,-6.0,11.0,42.0,28.0,13.0,18.0,5.0,54.0,12.0,-6.0,12.0,1.0,5.0,-23.0,0.0
16:15:00.288 12/08/2009,15.0,-13.0,-15.0,-21.0,-22.0,2.0,-25.0,-14.0,-28.0,-21.0,6.0,-4.0,-20.0,-11.0,-4.0,-23.0,-17.0,-8.0,-34.0,-5.0,-24.0,-73.0,-40.0,-31.0,-2.0,-48.0,-13.0,-31.0,-50.0,-3.0,-27.0,-4.0,-13.0,8.0,0.0,-1.0,2.0,-13.0,40.0,18.0,45.0,54.0,20.0,14.0,20.0,20.0,20.0,12.0,2.0,16.0,-10.0,9.0,34.0,20.0,7.0,27.0,5.0,51.0,8.0,-6.0,14.0,4.0,3.0,-18.0,0.0
16:15:00.294 12/08/2009,36.0,5.0,1.0,-9.0,-7.0,21.0,-3.0,7.0,-4.0,-5.0,12.0,0.0,-6.0,-2.0,5.0,-10.0,-15.0,-2.0,-29.0,-5.0,-28.0,-56.0,-27.0,-18.0,8.0,-34.0,-3.0,-22.0,-39.0,5.0,-18.0,6.0,-6.0,7.0,1.0,-3.0,4.0,-8.0,23.0,31.0,34.0,42.0,12.0,16.0,12.0,7.0,14.0,11.0,-11.0,2.0,-26.0,-5.0,16.0,0.0,-7.0,14.0,-13.0,29.0,-4.0,-22.0,3.0,-11.0,-9.0,-32.0,0.0
16:15:00.300 12/08/2009,24.0,-13.0,-17.0,-35.0,-33.0,-20.0,-47.0,-22.0,-19.0,-27.0,-18.0,-25.0,-37.0,-34.0,-2.0,-21.0,-39.0,-27.0,-54.0,-37.0,-45.0,-76.0,-50.0,-43.0,-11.0,-55.0,-30.0,-53.0,-64.0,-14.0,-43.0,-19.0,-30.0,-17.0,-28.0,-31.0,-26.0,-28.0,0.0,0.0,-9.0,3.0,4.0,13.0,-16.0,-10.0,-1.0,-3.0,-24.0,-13.0,-40.0,-16.0,6.0,-15.0,-12.0,-2.0,-25.0,17.0,-5.0,-24.0,-9.0,-16.0,-13.0,-33.0,0.0
16:15:00.306 12/08/2009,-5.0,-14.0,-16.0,-33.0,-29.0,-12.0,-29.0,-11.0,-17.0,-22.0,-16.0,-10.0,-22.0,-17.0,-10.0,-20.0,-32.0,-19.0,-42.0,-23.0,-31.0,-59.0,-33.0,-26.0,7.0,-42.0,-15.0,-41.0,-48.0,3.0,-29.0,-6.0,-14.0,-2.0,-10.0,-10.0,-6.0,-12.0,20.0,3.0,7.0,14.0,12.0,21.0,13.0,4.0,16.0,6.0,-14.0,1.0,-25.0,-1.0,23.0,-5.0,1.0,15.0,-11.0,30.0,12.0,-12.0,4.0,-4.0,-1.0,-19.0,0.0
16:15:00.313 12/08/2009,12.0,-11.0,-8.0,-23.0,-20.0,0.0,-18.0,-3.0,-17.0,-18.0,-5.0,-7.0,-16.0,-10.0,-7.0,-21.0,-25.0,-16.0,-39.0,-20.0,-29.0,-69.0,-44.0,-37.0,-1.0,-51.0,-24.0,-49.0,-50.0,-3.0,-38.0,-16.0,-25.0,-11.0,-19.0,-22.0,-14.0,-8.0,17.0,23.0,2.0,15.0,-1.0,10.0,8.0,-3.0,5.0,0.0,-22.0,-3.0,-34.0,-10.0,16.0,-13.0,-9.0,5.0,-20.0,21.0,3.0,-26.0,-10.0,-20.0,-13.0,-37.0,0.0
16:15:00.319 12/08/2009,1.0,-19.0,-17.0,-34.0,-29.0,-11.0,-48.0,-15.0,-17.0,-22.0,-6.0,-8.0,-20.0,-17.0,6.0,-11.0,-21.0,-18.0,-36.0,-18.0,-19.0,-78.0,-50.0,-42.0,-5.0,-52.0,-25.0,-47.0,-46.0,-8.0,-35.0,-10.0,-17.0,-2.0,-11.0,-11.0,-4.0,-1.0,14.0,21.0,-8.0,-1.0,-5.0,11.0,-24.0,2.0,5.0,11.0,-7.0,16.0,-13.0,12.0,47.0,17.0,10.0,13.0,-1.0,46.0,22.0,-3.0,9.0,3.0,6.0,-19.0,0.0
16:15:00.325 12/08/2009,31.0,14.0,10.0,-7.0,2.0,27.0,-2.0,10.0,5.0,-1.0,23.0,30.0,21.0,20.0,22.0,6.0,-2.0,7.0,-1.0,20.0,26.0,-54.0,-32.0,-24.0,10.0,-31.0,-7.0,-27.0,-32.0,3.0,-21.0,5.0,-2.0,13.0,7.0,3.0,9.0,5.0,14.0,13.0,-8.0,13.0,9.0,20.0,0.0,7.0,15.0,21.0,-1.0,22.0,-3.0,26.0,52.0,30.0,18.0,21.0,6.0,49.0,25.0,2.0,20.0,10.0,16.0,-13.0,0.0
16:15:00.331 12/08/2009,26.0,9.0,2.0,-21.0,-14.0,6.0,-17.0,20.0,0.0,-12.0,7.0,8.0,-3.0,-7.0,14.0,-1.0,-9.0,-4.0,-12.0,6.0,14.0,-68.0,-47.0,-40.0,-6.0,-46.0,-24.0,-43.0,-50.0,-13.0,-36.0,-6.0,-18.0,-3.0,-11.0,-14.0,-9.0,-16.0,-14.0,-6.0,-14.0,-19.0,-12.0,4.0,29.0,4.0,12.0,5.0,-14.0,10.0,-14.0,17.0,30.0,21.0,10.0,11.0,-4.0,39.0,10.0,-13.0,7.0,-2.0,4.0,-29.0,0.0
16:15:00.338 12/08/2009,39.0,7.0,-2.0,-31.0,-24.0,-2.0,-20.0,24.0,1.0,-15.0,-1.0,-5.0,-20.0,4.0,8.0,-1.0,-2.0,-12.0,-31.0,-30.0,-33.0,-64.0,-43.0,-35.0,6.0,-40.0,-22.0,-42.0,-49.0,3.0,-24.0,1.0,-14.0,1.0,-10.0,-11.0,-3.0,-12.0,7.0,12.0,-21.0,44.0,12.0,16.0,17.0,38.0,22.0,21.0,-4.0,18.0,-11.0,9.0,15.0,5.0,13.0,27.0,10.0,48.0,16.0,-8.0,19.0,8.0,11.0,-16.0,0.0
16:15:00.344 12/08/2009,33.0,13.0,8.0,-24.0,-20.0,-8.0,-33.0,13.0,6.0,-10.0,-1.0,-7.0,-36.0,-22.0,16.0,4.0,8.0,-10.0,-37.0,-31.0,-43.0,-52.0,-35.0,-27.0,11.0,-36.0,-18.0,-40.0,-43.0,17.0,-20.0,2.0,-15.0,-1.0,-12.0,-14.0,-2.0,-4.0,28.0,33.0,34.0,58.0,17.0,24.0,22.0,23.0,26.0,25.0,-5.0,14.0,-13.0,15.0,20.0,7.0,7.0,25.0,6.0,43.0,16.0,-8.0,20.0,5.0,10.0,-18.0,0.0
16:15:00.350 12/08/2009,22.0,-9.0,-8.0,-36.0,-31.0,-16.0,-40.0,-14.0,-17.0,-25.0,-11.0,-6.0,-31.0,-26.0,-5.0,-11.0,-10.0,-23.0,-35.0,-13.0,-22.0,-68.0,-51.0,-43.0,-3.0,-49.0,-30.0,-52.0,-58.0,6.0,-27.0,-9.0,-25.0,-12.0,-19.0,-22.0,-9.0,-14.0,42.0,17.0,45.0,24.0,7.0,7.0,9.0,10.0,12.0,10.0,-7.0,6.0,-14.0,26.0,26.0,13.0,10.0,9.0,-4.0,41.0,17.0,-5.0,8.0,-3.0,5.0,-31.0,0.0
16:15:00.356 12/08/2009,20.0,-5.0,-8.0,-30.0,-26.0,2.0,-18.0,-6.0,-4.0,-16.0,-2.0,1.0,-11.0,0.0,12.0,7.0,-2.0,-14.0,-25.0,3.0,-8.0,-60.0,-37.0,-33.0,11.0,-38.0,-24.0,-45.0,-52.0,17.0,-14.0,0.0,-21.0,-7.0,-20.0,-22.0,-10.0,-14.0,37.0,4.0,18.0,10.0,15.0,20.0,11.0,13.0,18.0,20.0,2.0,13.0,-9.0,30.0,26.0,15.0,14.0,22.0,4.0,44.0,22.0,1.0,17.0,3.0,12.0,-21.0,0.0
16:15:00.363 12/08/2009,36.0,3.0,-12.0,-36.0,-42.0,-22.0,-48.0,5.0,-2.0,-20.0,-12.0,-21.0,-33.0,-30.0,35.0,11.0,-6.0,-22.0,-43.0,-12.0,-29.0,-70.0,-50.0,-50.0,-8.0,-58.0,-42.0,-66.0,-67.0,-5.0,-41.0,-23.0,-45.0,-29.0,-45.0,-47.0,-32.0,-33.0,5.0,-15.0,-33.0,1.0,-11.0,8.0,-3.0,-7.0,13.0,16.0,-10.0,-2.0,-29.0,13.0,7.0,-2.0,-8.0,10.0,-15.0,24.0,0.0,-15.0,0.0,-15.0,-5.0,-34.0,0.0
16:15:00.369 12/08/2009,1.0,-25.0,-36.0,-54.0,-60.0,-40.0,-55.0,-3.0,-28.0,-44.0,-26.0,-33.0,-44.0,-35.0,-17.0,-27.0,-35.0,-40.0,-60.0,-16.0,-37.0,-79.0,-58.0,-53.0,-17.0,-65.0,-45.0,-68.0,-68.0,-15.0,-48.0,-27.0,-42.0,-26.0,-37.0,-37.0,-24.0,-30.0,5.0,-15.0,1.0,-12.0,-5.0,4.0,-13.0,-10.0,6.0,-3.0,-24.0,-8.0,-32.0,16.0,13.0,1.0,-3.0,10.0,-18.0,30.0,3.0,-11.0,3.0,-6.0,0.0,-24.0,0.0
16:15:00.375 12/08/2009,26.0,1.0,-16.0,-26.0,-27.0,-1.0,-1.0,-4.0,-15.0,-25.0,1.0,-6.0,-14.0,5.0,-13.0,-20.0,-18.0,-18.0,-41.0,5.0,-14.0,-61.0,-40.0,-32.0,-1.0,-40.0,-20.0,-39.0,-45.0,8.0,-29.0,-6.0,-20.0,-3.0,-4.0,-7.0,5.0,-7.0,35.0,3.0,35.0,-7.0,22.0,14.0,34.0,15.0,21.0,6.0,-12.0,7.0,-15.0,30.0,28.0,14.0,12.0,20.0,-7.0,41.0,15.0,-4.0,15.0,5.0,8.0,-13.0,0.0
16:15:00.381 12/08/2009,10.0,-17.0,-20.0,-22.0,-20.0,1.0,-7.0,-21.0,-29.0,-29.0,1.0,-8.0,-17.0,-1.0,-11.0,-24.0,-14.0,-19.0,-43.0,-4.0,-13.0,-66.0,-48.0,-39.0,-7.0,-45.0,-26.0,-45.0,-52.0,10.0,-37.0,-15.0,-30.0,-10.0,-14.0,-17.0,-5.0,-17.0,11.0,0.0,8.0,11.0,7.0,7.0,17.0,-3.0,14.0,1.0,-15.0,9.0,-20.0,21.0,13.0,4.0,-2.0,10.0,-12.0,39.0,5.0,-13.0,9.0,0.0,3.0,-24.0,0.0
16:15:00.388 12/08/2009,20.0,3.0,-13.0,-15.0,-19.0,-14.0,-52.0,4.0,1.0,-8.0,12.0,0.0,-22.0,-49.0,12.0,1.0,10.0,-3.0,-30.0,1.0,-26.0,-63.0,-39.0,-28.0,-2.0,-37.0,-11.0,-39.0,-43.0,13.0,-26.0,4.0,-5.0,11.0,0.0,-2.0,3.0,-9.0,1.0,14.0,-8.0,28.0,10.0,24.0,4.0,-8.0,28.0,26.0,17.0,40.0,6.0,44.0,37.0,30.0,13.0,33.0,13.0,62.0,25.0,6.0,32.0,21.0,19.0,-7.0,0.0
16:15:00.394 12/08/2009,31.0,31.0,15.0,17.0,7.0,17.0,-14.0,23.0,25.0,17.0,34.0,21.0,6.0,4.0,26.0,10.0,26.0,14.0,-15.0,20.0,6.0,-50.0,-27.0,-18.0,7.0,-25.0,1.0,-28.0,-35.0,30.0,-11.0,6.0,2.0,18.0,11.0,8.0,11.0,-7.0,29.0,23.0,7.0,16.0,4.0,24.0,21.0,15.0,25.0,23.0,11.0,30.0,-3.0,40.0,26.0,20.0,11.0,19.0,-1.0,42.0,9.0,-9.0,16.0,0.0,2.0,-23.0,0.0
16:15:00.400 12/08/2009,23.0,1.0,-8.0,-2.0,-8.0,14.0,-2.0,1.0,-14.0,-16.0,11.0,-10.0,-5.0,16.0,1.0,-27.0,-5.0,-12.0,-41.0,-13.0,-31.0,-71.0,-44.0,-33.0,-12.0,-45.0,-17.0,-40.0,-45.0,3.0,-33.0,-12.0,-18.0,2.0,-4.0,-6.0,1.0,-17.0,8.0,-1.0,12.0,26.0,-3.0,26.0,-12.0,16.0,4.0,0.0,-20.0,4.0,-26.0,21.0,11.0,0.0,1.0,-4.0,-20.0,23.0,-3.0,-15.0,-1.0,-12.0,-10.0,-33.0,0.0
16:15:00.406 12/08/2009,13.0,-8.0,-13.0,-3.0,-7.0,11.0,-12.0,-32.0,-26.0,-24.0,11.0,-11.0,-3.0,-6.0,-14.0,-31.0,-13.0,-6.0,-33.0,2.0,-17.0,-61.0,-34.0,-18.0,2.0,-35.0,-5.0,-31.0,-33.0,11.0,-28.0,-1.0,-4.0,14.0,6.0,4.0,10.0,-5.0,22.0,14.0,21.0,17.0,14.0,39.0,-3.0,20.0,19.0,17.0,-5.0,22.0,-8.0,38.0,43.0,21.0,20.0,19.0,1.0,37.0,19.0,3.0,16.0,5.0,7.0,-16.0,0.0
16:15:00.413 12/08/2009,31.0,19.0,6.0,17.0,12.0,23.0,-5.0,4.0,8.0,0.0,28.0,6.0,15.0,21.0,12.0,-5.0,-2.0,8.0,-11.0,22.0,14.0,-51.0,-35.0,-17.0,2.0,-32.0,-2.0,-30.0,-36.0,9.0,-32.0,-1.0,-3.0,16.0,10.0,6.0,11.0,-5.0,-6.0,21.0,-22.0,31.0,-4.0,24.0,-25.0,19.0,6.0,14.0,-13.0,12.0,-19.0,20.0,28.0,9.0,6.0,5.0,-15.0,19.0,1.0,-14.0,4.0,-10.0,-6.0,-30.0,0.0
16:15:00.419 12/08/2009,-5.0,-9.0,-14.0,-3.0,-8.0,7.0,-8.0,-31.0,-12.0,-25.0,0.0,-17.0,-19.0,-12.0,1.0,-24.0,-31.0,-16.0,-34.0,-13.0,-16.0,-61.0,-51.0,-27.0,-8.0,-44.0,-14.0,-38.0,-42.0,1.0,-41.0,-18.0,-17.0,3.0,2.0,0.0,11.0,-6.0,15.0,5.0,-8.0,22.0,1.0,25.0,-1.0,13.0,2.0,-10.0,-35.0,-4.0,-27.0,15.0,25.0,13.0,6.0,-2.0,-22.0,21.0,-1.0,-10.0,8.0,-3.0,-2.0,-21.0,0.0
16:15:00.425 12/08/2009,4.0,-18.0,-14.0,-3.0,-4.0,18.0,-7.0,-16.0,-31.0,-31.0,2.0,-10.0,-3.0,12.0,-7.0,-33.0,-37.0,-8.0,-27.0,4.0,5.0,-48.0,-39.0,-16.0,4.0,-32.0,-5.0,-31.0,-36.0,2.0,-32.0,-8.0,-7.0,10.0,10.0,7.0,17.0,2.0,22.0,17.0,18.0,24.0,10.0,25.0,17.0,31.0,12.0,1.0,-27.0,4.0,-21.0,25.0,26.0,12.0,8.0,7.0,-12.0,26.0,4.0,-10.0,11.0,-2.0,2.0,-17.0,0.0
16:15:00.431 12/08/2009,20.0,-7.0,-15.0,-7.0,-14.0,2.0,-31.0,-11.0,-15.0,-27.0,-3.0,-24.0,-20.0,-15.0,-4.0,-23.0,-41.0,-13.0,-45.0,-15.0,-30.0,-69.0,-48.0,-31.0,-16.0,-45.0,-17.0,-45.0,-52.0,-12.0,-40.0,-17.0,-20.0,-5.0,-3.0,-5.0,1.0,-16.0,0.0,5.0,-14.0,35.0,-17.0,13.0,-16.0,9.0,-4.0,-6.0,-35.0,-7.0,-32.0,5.0,6.0,-6.0,-7.0,-9.0,-23.0,17.0,-7.0,-23.0,-4.0,-16.0,-11.0,-34.0,0.0
16:15:00.438 12/08/2009,-1.0,-18.0,-24.0,-16.0,-23.0,-1.0,-22.0,-30.0,-24.0,-34.0,-6.0,-26.0,-18.0,-16.0,-20.0,-36.0,-41.0,-14.0,-41.0,-4.0,-24.0,-78.0,-46.0,-30.0,-15.0,-44.0,-16.0,-38.0,-46.0,-22.0,-40.0,-16.0,-17.0,2.0,10.0,8.0,16.0,0.0,-2.0,11.0,5.0,19.0,-4.0,22.0,-14.0,23.0,1.0,1.0,-20.0,10.0,-5.0,30.0,41.0,29.0,21.0,10.0,-3.0,47.0,24.0,5.0,20.0,13.0,15.0,-7.0,0.0
16:15:00.444 12/08/2009,31.0,14.0,-1.0,5.0,5.0,35.0,21.0,-4.0,6.0,-8.0,18.0,3.0,20.0,34.0,4.0,-14.0,-11.0,8.0,-12.0,27.0,11.0,-55.0,-28.0,-14.0,6.0,-24.0,-2.0,-22.0,-33.0,-13.0,-31.0,-7.0,-8.0,11.0,23.0,18.0,25.0,13.0,1.0,22.0,-10.0,33.0,-2.0,21.0,-6.0,27.0,6.0,13.0,-13.0,14.0,-4.0,25.0,33.0,25.0,13.0,8.0,-5.0,45.0,15.0,-4.0,16.0,6.0,8.0,-14.0,0.0
16:15:00.450 12/08/2009,-11.0,-17.0,-26.0,-12.0,-15.0,13.0,-4.0,-22.0,-16.0,-26.0,0.0,-18.0,1.0,1.0,5.0,-21.0,-18.0,-6.0,-25.0,11.0,0.0,-71.0,-43.0,-31.0,-13.0,-40.0,-20.0,-40.0,-51.0,-21.0,-46.0,-26.0,-28.0,-7.0,2.0,-1.0,2.0,-7.0,7.0,11.0,-19.0,5.0,-16.0,4.0,-18.0,10.0,1.0,3.0,-23.0,7.0,-13.0,16.0,26.0,18.0,6.0,2.0,-11.0,44.0,8.0,-8.0,9.0,2.0,-1.0,-24.0,0.0
16:15:00.456 12/08/2009,-11.0,-18.0,-25.0,-13.0,-20.0,6.0,-26.0,-30.0,-21.0,-25.0,3.0,-18.0,-7.0,-5.0,-14.0,-26.0,-15.0,-2.0,-25.0,11.0,-8.0,-62.0,-33.0,-24.0,-2.0,-31.0,-15.0,-35.0,-44.0,-12.0,-33.0,-14.0,-20.0,-4.0,3.0,1.0,3.0,-3.0,-6.0,-4.0,4.0,17.0,10.0,15.0,-17.0,17.0,7.0,4.0,-24.0,12.0,-6.0,17.0,27.0,22.0,14.0,7.0,-7.0,46.0,12.0,0.0,11.0,6.0,6.0,-18.0,0.0
16:15:00.463 12/08/2009,21.0,3.0,-17.0,-7.0,-15.0,17.0,2.0,-3.0,5.0,-16.0,5.0,-14.0,-5.0,16.0,1.0,-10.0,-7.0,6.0,-25.0,16.0,3.0,-64.0,-36.0,-31.0,-10.0,-34.0,-20.0,-44.0,-52.0,-21.0,-37.0,-17.0,-25.0,-11.0,-3.0,-6.0,-1.0,-14.0,-13.0,-10.0,-42.0,16.0,-13.0,7.0,-30.0,-8.0,2.0,10.0,-22.0,8.0,-13.0,7.0,22.0,21.0,7.0,-5.0,-16.0,34.0,4.0,-7.0,3.0,-3.0,-2.0,-29.0,0.0
16:15:00.469 12/08/2009,4.0,-15.0,-34.0,-25.0,-32.0,-13.0,-35.0,-2.0,-10.0,-33.0,-14.0,-29.0,-27.0,-23.0,5.0,-23.0,-23.0,-6.0,-37.0,7.0,-3.0,-74.0,-42.0,-35.0,-17.0,-38.0,-26.0,-52.0,-53.0,-17.0,-37.0,-24.0,-32.0,-15.0,-11.0,-13.0,1.0,-5.0,2.0,21.0,-8.0,18.0,-14.0,14.0,1.0,10.0,13.0,10.0,-23.0,8.0,-10.0,13.0,29.0,21.0,12.0,12.0,-5.0,43.0,12.0,1.0,18.0,14.0,7.0,-13.0,0.0
16:15:00.475 12/08/2009,43.0,-2.0,-23.0,-11.0,-17.0,6.0,-13.0,2.0,-9.0,-24.0,1.0,-3.0,1.0,13.0,15.0,-12.0,-13.0,6.0,-15.0,32.0,18.0,-60.0,-25.0,-21.0,-2.0,-26.0,-13.0,-37.0,-39.0,4.0,-22.0,-16.0,-21.0,-5.0,3.0,0.0,6.0,-2.0,12.0,12.0,44.0,14.0,9.0,25.0,23.0,40.0,13.0,2.0,-32.0,4.0,-10.0,5.0,25.0,19.0,14.0,7.0,-17.0,35.0,5.0,-5.0,10.0,6.0,4.0,-16.0,0.0
16:15:00.481 12/08/2009,-12.0,-41.0,-49.0,-30.0,-34.0,-4.0,-11.0,-52.0,-50.0,-59.0,-24.0,-31.0,-25.0,-3.0,-49.0,-57.0,-51.0,-29.0,-46.0,-12.0,-31.0,-87.0,-49.0,-47.0,-28.0,-60.0,-39.0,-61.0,-64.0,-18.0,-64.0,-58.0,-55.0,-32.0,-17.0,-21.0,-17.0,-31.0,-3.0,-12.0,3.0,30.0,2.0,12.0,-13.0,13.0,-16.0,-33.0,-62.0,-26.0,-38.0,-27.0,-6.0,-2.0,-9.0,-21.0,-44.0,14.0,-13.0,-25.0,-14.0,-15.0,-17.0,-37.0,0.0
16:15:00.488 12/08/2009,-44.0,-53.0,-56.0,-41.0,-40.0,-13.0,-16.0,-42.0,-46.0,-62.0,-29.0,-34.0,-32.0,-24.0,-32.0,-46.0,-47.0,-30.0,-45.0,-9.0,-22.0,-85.0,-46.0,-40.0,-22.0,-56.0,-32.0,-52.0,-54.0,-16.0,-56.0,-43.0,-42.0,-18.0,-5.0,-6.0,-2.0,-11.0,-10.0,8.0,-11.0,29.0,-11.0,16.0,-23.0,13.0,-3.0,-15.0,-47.0,-12.0,-26.0,-15.0,12.0,18.0,7.0,-8.0,-31.0,27.0,6.0,-6.0,-1.0,0.0,-5.0,-22.0,0.0
16:15:00.494 12/08/2009,17.0,-9.0,-27.0,-17.0,-13.0,14.0,6.0,-22.0,-13.0,-37.0,-6.0,-11.0,-1.0,12.0,-20.0,-30.0,-27.0,-9.0,-27.0,15.0,7.0,-69.0,-32.0,-27.0,-9.0,-39.0,-17.0,-38.0,-40.0,-7.0,-37.0,-20.0,-23.0,-4.0,11.0,7.0,11.0,-4.0,-57.0,11.0,-36.0,14.0,-12.0,12.0,-25.0,12.0,-3.0,-10.0,-44.0,-11.0,-29.0,-20.0,13.0,13.0,2.0,-12.0,-35.0,19.0,-1.0,-16.0,-10.0,-12.0,-14.0,-32.0,0.0
16:15:00.500 12/08/2009,12.0,-23.0,-41.0,-27.0,-27.0,2.0,-5.0,-51.0,-31.0,-55.0,-24.0,-35.0,-14.0,3.0,-30.0,-44.0,-50.0,-31.0,-49.0,1.0,-4.0,-88.0,-52.0,-50.0,-30.0,-63.0,-43.0,-65.0,-62.0,-15.0,-68.0,-59.0,-56.0,-33.0,-21.0,-24.0,-16.0,-26.0,-13.0,-17.0,-32.0,-23.0,-14.0,3.0,-59.0,-5.0,-22.0,-23.0,-58.0,-26.0,-43.0,-29.0,1.0,6.0,-5.0,-21.0,-44.0,13.0,-8.0,-23.0,-17.0,-16.0,-21.0,-36.0,0.0
16:15:00.506 12/08/2009,-64.0,-64.0,-63.0,-41.0,-35.0,-10.0,-33.0,-49.0,-52.0,-64.0,-28.0,-41.0,-15.0,-8.0,-34.0,-51.0,-55.0,-27.0,-40.0,10.0,7.0,-85.0,-46.0,-42.0,-25.0,-61.0,-36.0,-56.0,-49.0,-9.0,-66.0,-53.0,-49.0,-26.0,-17.0,-18.0,-4.0,-5.0,-17.0,4.0,-34.0,12.0,-15.0,8.0,-10.0,3.0,-7.0,-15.0,-45.0,-12.0,-30.0,-12.0,8.0,19.0,4.0,-5.0,-30.0,28.0,5.0,-6.0,-1.0,-2.0,-3.0,-21.0,0.0
16:15:00.513 12/08/2009,-4.0,-25.0,-45.0,-32.0,-25.0,3.0,-10.0,-21.0,-26.0,-45.0,-17.0,-33.0,-7.0,-3.0,-12.0,-33.0,-48.0,-19.0,-32.0,8.0,-2.0,-85.0,-46.0,-49.0,-30.0,-62.0,-37.0,-61.0,-54.0,-18.0,-63.0,-49.0,-51.0,-30.0,-22.0,-26.0,-17.0,-20.0,-52.0,-26.0,-37.0,3.0,-36.0,-6.0,-29.0,-5.0,-7.0,-13.0,-46.0,-18.0,-39.0,-26.0,-16.0,3.0,-11.0,-8.0,-37.0,18.0,-13.0,-23.0,-9.0,-17.0,-21.0,-39.0,0.0
16:15:00.519 12/08/2009,-21.0,-49.0,-64.0,-42.0,-46.0,-19.0,-25.0,-67.0,-51.0,-64.0,-33.0,-50.0,-35.0,-19.0,-47.0,-56.0,-71.0,-34.0,-45.0,-11.0,-8.0,-92.0,-53.0,-56.0,-35.0,-71.0,-49.0,-67.0,-59.0,-25.0,-74.0,-67.0,-62.0,-40.0,-32.0,-33.0,-18.0,-15.0,-34.0,-6.0,3.0,-14.0,-12.0,-3.0,-40.0,-4.0,-14.0,-26.0,-58.0,-25.0,-39.0,-25.0,-6.0,11.0,3.0,-12.0,-40.0,30.0,1.0,-10.0,-7.0,-8.0,-11.0,-29.0,0.0
16:15:00.525 12/08/2009,-40.0,-53.0,-63.0,-34.0,-37.0,-8.0,-15.0,-71.0,-48.0,-59.0,-22.0,-34.0,-18.0,-6.0,-44.0,-51.0,-61.0,-23.0,-32.0,6.0,8.0,-79.0,-38.0,-45.0,-21.0,-56.0,-40.0,-56.0,-51.0,-4.0,-58.0,-55.0,-53.0,-31.0,-21.0,-23.0,-10.0,-6.0,-15.0,4.0,-1.0,26.0,-5.0,3.0,-25.0,4.0,-5.0,-11.0,-48.0,-21.0,-36.0,-20.0,-9.0,6.0,3.0,-9.0,-34.0,33.0,3.0,-12.0,-8.0,-7.0,-5.0,-25.0,0.0
16:15:00.531 12/08/2009,-27.0,-51.0,-68.0,-47.0,-48.0,-14.0,-1.0,-62.0,-45.0,-62.0,-35.0,-45.0,-34.0,-31.0,-34.0,-48.0,-65.0,-39.0,-52.0,-20.0,-15.0,-90.0,-50.0,-59.0,-29.0,-68.0,-54.0,-70.0,-67.0,-13.0,-65.0,-64.0,-65.0,-44.0,-32.0,-34.0,-18.0,-23.0,-35.0,-18.0,-40.0,7.0,-23.0,-12.0,-50.0,-22.0,-17.0,-17.0,-54.0,-29.0,-42.0,-22.0,-13.0,-5.0,-9.0,-15.0,-37.0,25.0,-3.0,-21.0,-12.0,-14.0,-13.0,-35.0,0.0
16:15:00.538 12/08/2009,-32.0,-43.0,-69.0,-45.0,-45.0,-14.0,-3.0,-61.0,-34.0,-50.0,-27.0,-32.0,-25.0,-23.0,-8.0,-23.0,-56.0,-27.0,-43.0,14.0,34.0,-93.0,-48.0,-54.0,-26.0,-67.0,-49.0,-68.0,-62.0,-18.0,-61.0,-54.0,-53.0,-35.0,-30.0,-31.0,-20.0,-15.0,-45.0,-18.0,-23.0,-27.0,-6.0,-3.0,-30.0,-26.0,-3.0,-12.0,-50.0,-20.0,-26.0,-2.0,12.0,15.0,10.0,-5.0,-33.0,31.0,10.0,-5.0,-5.0,-5.0,-5.0,-21.0,0.0
16:15:00.544 12/08/2009,-5.0,-30.0,-64.0,-43.0,-48.0,-26.0,-45.0,-51.0,-46.0,-59.0,-35.0,-42.0,-38.0,-28.0,-45.0,-49.0,-76.0,-43.0,-63.0,-3.0,-3.0,-93.0,-53.0,-61.0,-28.0,-74.0,-58.0,-75.0,-69.0,-12.0,-65.0,-61.0,-66.0,-48.0,-43.0,-45.0,-28.0,-23.0,-34.0,-13.0,-12.0,3.0,-10.0,0.0,-19.0,17.0,-23.0,-41.0,-80.0,-45.0,-54.0,-45.0,-40.0,-26.0,-8.0,-31.0,-60.0,3.0,-20.0,-30.0,-29.0,-27.0,-28.0,-39.0,0.0
16:15:00.550 12/08/2009,-31.0,-54.0,-88.0,-66.0,-69.0,-36.0,-33.0,-60.0,-56.0,-78.0,-60.0,-63.0,-58.0,-38.0,-53.0,-59.0,-89.0,-63.0,-80.0,-40.0,-47.0,-101.0,-63.0,-70.0,-39.0,-83.0,-68.0,-80.0,-77.0,-20.0,-76.0,-70.0,-72.0,-53.0,-44.0,-45.0,-25.0,-27.0,-52.0,-16.0,-59.0,-2.0,-30.0,-2.0,-56.0,1.0,-35.0,-42.0,-79.0,-45.0,-53.0,-50.0,-36.0,-18.0,-10.0,-32.0,-58.0,5.0,-18.0,-27.0,-31.0,-26.0,-29.0,-41.0,0.0
16:15:00.556 12/08/2009,-29.0,-37.0,-68.0,-45.0,-48.0,-10.0,-1.0,-45.0,-43.0,-60.0,-36.0,-34.0,-24.0,-4.0,-39.0,-51.0,-68.0,-39.0,-49.0,2.0,-1.0,-73.0,-36.0,-38.0,-22.0,-56.0,-41.0,-50.0,-49.0,-9.0,-59.0,-52.0,-48.0,-29.0,-16.0,-18.0,2.0,0.0,-40.0,6.0,-15.0,10.0,2.0,7.0,-30.0,9.0,-12.0,-23.0,-61.0,-29.0,-32.0,-27.0,-6.0,5.0,3.0,-12.0,-43.0,20.0,-6.0,-16.0,-15.0,-14.0,-15.0,-29.0,0.0
16:15:00.563 12/08/2009,-21.0,-49.0,-65.0,-33.0,-36.0,-5.0,0.0,-84.0,-66.0,-66.0,-32.0,-30.0,-23.0,-13.0,-52.0,-65.0,-79.0,-43.0,-55.0,-2.0,-11.0,-66.0,-36.0,-37.0,-23.0,-55.0,-42.0,-53.0,-54.0,-10.0,-62.0,-61.0,-54.0,-34.0,-22.0,-25.0,-7.0,-13.0,-13.0,-1.0,-6.0,14.0,-9.0,4.0,-59.0,-4.0,-31.0,-35.0,-76.0,-41.0,-47.0,-43.0,-20.0,-13.0,-11.0,-39.0,-59.0,5.0,-25.0,-32.0,-35.0,-35.0,-31.0,-52.0,0.0
16:15:00.569 12/08/2009,-37.0,-49.0,-68.0,-38.0,-43.0,-15.0,-14.0,-73.0,-52.0,-64.0,-33.0,-25.0,-23.0,-10.0,-48.0,-51.0,-79.0,-41.0,-58.0,-8.0,-10.0,-71.0,-41.0,-42.0,-23.0,-53.0,-42.0,-56.0,-60.0,-15.0,-59.0,-49.0,-45.0,-25.0,-20.0,-21.0,-4.0,-13.0,-32.0,-8.0,-48.0,-11.0,-28.0,3.0,-55.0,-2.0,-30.0,-32.0,-64.0,-27.0,-34.0,-32.0,-1.0,8.0,7.0,-26.0,-45.0,27.0,-6.0,-8.0,-21.0,-15.0,-13.0,-33.0,0.0
16:15:00.575 12/08/2009,-17.0,-20.0,-44.0,-22.0,-26.0,1.0,10.0,-42.0,-22.0,-44.0,-13.0,-5.0,-1.0,17.0,-21.0,-31.0,-56.0,-23.0,-43.0,13.0,22.0,-65.0,-33.0,-33.0,-16.0,-43.0,-35.0,-46.0,-52.0,-14.0,-54.0,-41.0,-42.0,-21.0,-14.0,-17.0,1.0,-11.0,-22.0,-9.0,-17.0,12.0,-7.0,2.0,-11.0,4.0,-14.0,-27.0,-62.0,-24.0,-34.0,-30.0,0.0,4.0,5.0,-15.0,-42.0,22.0,-8.0,-11.0,-15.0,-11.0,-12.0,-25.0,0.0
16:15:00.581 12/08/2009,-17.0,-38.0,-60.0,-36.0,-40.0,-15.0,-4.0,-67.0,-50.0,-62.0,-27.0,-28.0,-20.0,-20.0,-52.0,-54.0,-70.0,-42.0,-60.0,-5.0,-6.0,-71.0,-40.0,-45.0,-17.0,-50.0,-46.0,-62.0,-66.0,-15.0,-56.0,-50.0,-51.0,-30.0,-27.0,-29.0,-14.0,-22.0,-27.0,-15.0,-18.0,4.0,-14.0,-6.0,-30.0,-8.0,-20.0,-26.0,-66.0,-32.0,-43.0,-35.0,-16.0,-15.0,-10.0,-22.0,-41.0,14.0,-19.0,-20.0,-23.0,-17.0,-20.0,-39.0,0.0
16:15:00.588 12/08/2009,15.0,-7.0,-45.0,-31.0,-34.0,-17.0,-20.0,-14.0,-16.0,-39.0,-17.0,-24.0,-30.0,-14.0,-25.0,-23.0,-48.0,-30.0,-56.0,-8.0,-13.0,-65.0,-26.0,-29.0,-1.0,-32.0,-29.0,-43.0,-48.0,-5.0,-34.0,-25.0,-27.0,-7.0,-8.0,-10.0,14.0,8.0,-16.0,36.0,-10.0,32.0,-10.0,14.0,-17.0,7.0,-4.0,-5.0,-44.0,-7.0,-22.0,-18.0,1.0,4.0,11.0,-4.0,-20.0,35.0,-1.0,4.0,-5.0,4.0,-1.0,-21.0,0.0
16:15:00.594 12/08/2009,17.0,2.0,-27.0,-11.0,-16.0,1.0,1.0,-22.0,-5.0,-26.0,-6.0,-2.0,-15.0,5.0,-8.0,-16.0,-33.0,-14.0,-42.0,8.0,2.0,-57.0,-18.0,-21.0,7.0,-25.0,-18.0,-34.0,-43.0,14.0,-34.0,-25.0,-24.0,-3.0,-1.0,-4.0,13.0,3.0,11.0,17.0,6.0,21.0,3.0,20.0,-6.0,8.0,1.0,0.0,-37.0,-1.0,-16.0,-16.0,6.0,12.0,11.0,-3.0,-24.0,31.0,-4.0,6.0,-8.0,-3.0,-3.0,-22.0,0.0
16:15:00.600 12/08/2009,-13.0,-12.0,-31.0,-13.0,-17.0,-1.0,-2.0,-44.0,-14.0,-33.0,-10.0,2.0,-15.0,-4.0,-18.0,-25.0,-41.0,-19.0,-39.0,3.0,-3.0,-71.0,-31.0,-35.0,-1.0,-35.0,-25.0,-44.0,-59.0,4.0,-40.0,-29.0,-27.0,-6.0,-5.0,-7.0,3.0,-17.0,-23.0,-8.0,-7.0,4.0,-11.0,5.0,-24.0,4.0,-6.0,-8.0,-43.0,-7.0,-18.0,-15.0,12.0,14.0,11.0,-5.0,-28.0,29.0,-5.0,5.0,-10.0,-4.0,-5.0,-23.0,0.0
16:15:00.606 12/08/2009,12.0,-3.0,-30.0,-10.0,-11.0,11.0,9.0,-19.0,-15.0,-32.0,-2.0,9.0,3.0,13.0,-17.0,-25.0,-41.0,-9.0,-12.0,25.0,26.0,-74.0,-30.0,-31.0,-1.0,-35.0,-21.0,-37.0,-53.0,-10.0,-42.0,-28.0,-21.0,-1.0,1.0,-1.0,14.0,1.0,-7.0,10.0,11.0,-9.0,5.0,16.0,-1.0,12.0,10.0,6.0,-30.0,11.0,-2.0,7.0,40.0,39.0,31.0,9.0,-8.0,45.0,19.0,23.0,10.0,17.0,16.0,-3.0,0.0
16:15:00.613 12/08/2009,2.0,3.0,-22.0,2.0,1.0,21.0,-1.0,-5.0,7.0,-18.0,10.0,17.0,23.0,48.0,3.0,-5.0,-31.0,4.0,2.0,41.0,36.0,-68.0,-26.0,-25.0,4.0,-29.0,-16.0,-33.0,-48.0,-3.0,-40.0,-25.0,-14.0,4.0,3.0,0.0,13.0,-3.0,-33.0,0.0,-39.0,15.0,-13.0,7.0,-33.0,24.0,7.0,15.0,-29.0,7.0,-14.0,-12.0,3.0,10.0,11.0,3.0,-14.0,30.0,-4.0,-2.0,-4.0,0.0,-5.0,-22.0,0.0
16:15:00.619 12/08/2009,12.0,2.0,-34.0,-16.0,-25.0,-12.0,-16.0,-1.0,-3.0,-32.0,-17.0,-26.0,-33.0,-20.0,2.0,-19.0,-50.0,-20.0,-35.0,-17.0,-49.0,-82.0,-36.0,-37.0,-3.0,-36.0,-26.0,-46.0,-60.0,-10.0,-41.0,-34.0,-24.0,-3.0,-8.0,-11.0,3.0,-13.0,-22.0,17.0,-12.0,31.0,-7.0,14.0,-14.0,16.0,4.0,-3.0,-39.0,-7.0,-27.0,-14.0,-4.0,11.0,10.0,1.0,-20.0,30.0,-1.0,-2.0,-3.0,1.0,-7.0,-22.0,0.0
16:15:00.625 12/08/2009,-4.0,-14.0,-32.0,-7.0,-16.0,4.0,-2.0,-25.0,-21.0,-32.0,-8.0,-7.0,-4.0,-4.0,-15.0,-30.0,-44.0,-5.0,-11.0,27.0,-2.0,-58.0,-13.0,-14.0,19.0,-17.0,-5.0,-25.0,-38.0,13.0,-24.0,-23.0,-7.0,14.0,11.0,8.0,16.0,4.0,12.0,10.0,41.0,21.0,8.0,13.0,13.0,3.0,12.0,1.0,-25.0,4.0,-14.0,1.0,20.0,27.0,12.0,8.0,-11.0,36.0,7.0,3.0,5.0,8.0,1.0,-14.0,0.0
16:15:00.631 12/08/2009,2.0,0.0,-18.0,-1.0,-13.0,9.0,-2.0,-31.0,-3.0,-24.0,-6.0,-5.0,-7.0,-12.0,3.0,-12.0,-36.0,-4.0,-25.0,1.0,-37.0,-71.0,-29.0,-28.0,4.0,-30.0,-16.0,-38.0,-57.0,1.0,-31.0,-26.0,-15.0,3.0,-3.0,-6.0,1.0,-15.0,-27.0,1.0,-26.0,29.0,-36.0,12.0,-42.0,23.0,-2.0,7.0,-19.0,1.0,-26.0,-27.0,-10.0,-6.0,-5.0,-1.0,-17.0,30.0,-15.0,-15.0,-5.0,-5.0,-10.0,-27.0,0.0
16:15:00.638 12/08/2009,6.0,1.0,-22.0,-12.0,-25.0,-10.0,-18.0,-22.0,-2.0,-27.0,-8.0,-12.0,-32.0,-11.0,-11.0,-20.0,-41.0,-6.0,-31.0,-14.0,-38.0,-69.0,-27.0,-24.0,15.0,-28.0,-14.0,-35.0,-48.0,10.0,-31.0,-26.0,-14.0,3.0,1.0,-1.0,12.0,2.0,-5.0,32.0,6.0,32.0,1.0,24.0,0.0,33.0,11.0,4.0,-22.0,7.0,-7.0,-2.0,19.0,23.0,21.0,12.0,-6.0,51.0,12.0,12.0,12.0,15.0,13.0,-6.0,0.0
16:15:00.644 12/08/2009,-10.0,-27.0,-12.0,1.0,-5.0,14.0,-3.0,2.0,-4.0,-22.0,11.0,17.0,12.0,34.0,-23.0,-22.0,-30.0,13.0,4.0,37.0,17.0,-50.0,-9.0,-10.0,22.0,-23.0,-6.0,-19.0,-28.0,13.0,-36.0,-24.0,-8.0,7.0,15.0,12.0,27.0,16.0,-13.0,30.0,0.0,25.0,5.0,13.0,7.0,41.0,17.0,12.0,-16.0,18.0,9.0,15.0,42.0,39.0,30.0,16.0,-4.0,54.0,18.0,19.0,15.0,15.0,13.0,-9.0,0.0
16:15:00.650 12/08/2009,7.0,-58.0,-16.0,-4.0,-12.0,16.0,7.0,-6.0,-2.0,-26.0,6.0,9.0,13.0,23.0,-11.0,-13.0,-33.0,4.0,-5.0,25.0,6.0,-73.0,-34.0,-35.0,5.0,-44.0,-29.0,-44.0,-56.0,-3.0,-47.0,-38.0,-28.0,-13.0,-6.0,-9.0,1.0,-11.0,-36.0,3.0,-16.0,21.0,-22.0,10.0,-15.0,17.0,4.0,1.0,-24.0,8.0,-3.0,1.0,27.0,23.0,14.0,8.0,-11.0,48.0,4.0,7.0,6.0,6.0,2.0,-17.0,0.0
16:15:00.656 12/08/2009,18.0,-48.0,-21.0,-11.0,-23.0,4.0,-3.0,-5.0,7.0,-21.0,5.0,2.0,2.0,-8.0,-3.0,-6.0,-27.0,8.0,1.0,30.0,18.0,-67.0,-24.0,-27.0,18.0,-35.0,-22.0,-43.0,-49.0,8.0,-32.0,-27.0,-20.0,-4.0,1.0,-1.0,7.0,-5.0,-21.0,3.0,21.0,-3.0,11.0,21.0,5.0,14.0,23.0,17.0,-6.0,25.0,17.0,25.0,58.0,46.0,31.0,26.0,10.0,68.0,30.0,25.0,27.0,25.0,23.0,4.0,0.0
16:15:00.663 12/08/2009,10.0,-59.0,-24.0,-5.0,-13.0,18.0,4.0,-10.0,-6.0,-25.0,14.0,16.0,26.0,32.0,5.0,-5.0,-30.0,16.0,13.0,50.0,44.0,-60.0,-19.0,-27.0,24.0,-33.0,-22.0,-43.0,-49.0,32.0,-32.0,-41.0,-30.0,-10.0,-3.0,-6.0,7.0,1.0,23.0,4.0,21.0,1.0,9.0,9.0,6.0,36.0,21.0,13.0,-12.0,16.0,7.0,12.0,42.0,38.0,32.0,13.0,0.0,53.0,18.0,16.0,17.0,16.0,16.0,-5.0,0.0
16:15:00.669 12/08/2009,-28.0,-77.0,-42.0,-20.0,-23.0,3.0,-16.0,-15.0,-11.0,-37.0,1.0,-1.0,6.0,9.0,-2.0,-7.0,-44.0,2.0,-12.0,7.0,-18.0,-81.0,-35.0,-36.0,5.0,-43.0,-31.0,-48.0,-52.0,22.0,-44.0,-43.0,-33.0,-12.0,-5.0,-8.0,6.0,-1.0,-9.0,17.0,-9.0,58.0,2.0,5.0,-30.0,61.0,15.0,12.0,-13.0,11.0,2.0,1.0,21.0,14.0,22.0,12.0,-3.0,48.0,8.0,6.0,15.0,16.0,11.0,-5.0,0.0
16:15:00.675 12/08/2009,1.0,-50.0,-33.0,-17.0,-18.0,4.0,13.0,-8.0,1.0,-30.0,-4.0,-2.0,-10.0,14.0,-12.0,-11.0,-46.0,-1.0,-24.0,-4.0,-20.0,-77.0,-35.0,-35.0,5.0,-40.0,-30.0,-50.0,-54.0,20.0,-39.0,-32.0,-31.0,-13.0,-9.0,-11.0,-4.0,-12.0,-22.0,20.0,-3.0,58.0,-1.0,27.0,0.0,45.0,14.0,3.0,-14.0,8.0,-5.0,-1.0,27.0,18.0,18.0,10.0,-8.0,42.0,7.0,7.0,15.0,17.0,14.0,2.0,0.0
16:15:00.681 12/08/2009,2.0,-52.0,-40.0,-28.0,-33.0,-17.0,-25.0,-16.0,-2.0,-35.0,-16.0,-14.0,-20.0,0.0,-9.0,-13.0,-48.0,-11.0,-30.0,1.0,-18.0,-81.0,-49.0,-45.0,-10.0,-51.0,-43.0,-61.0,-65.0,5.0,-55.0,-50.0,-50.0,-29.0,-23.0,-25.0,-8.0,-11.0,-13.0,7.0,-2.0,17.0,-6.0,22.0,-2.0,26.0,8.0,-4.0,-25.0,-2.0,-16.0,-6.0,29.0,19.0,16.0,3.0,-15.0,31.0,4.0,9.0,7.0,10.0,11.0,-5.0,0.0
16:15:00.688 12/08/2009,-20.0,-81.0,-54.0,-33.0,-33.0,-12.0,-21.0,-20.0,-32.0,-46.0,-15.0,-10.0,-7.0,7.0,-18.0,-26.0,-51.0,-8.0,-23.0,10.0,-10.0,-78.0,-39.0,-36.0,5.0,-40.0,-35.0,-48.0,-54.0,22.0,-42.0,-41.0,-38.0,-17.0,-10.0,-11.0,10.0,11.0,13.0,25.0,17.0,42.0,13.0,28.0,18.0,37.0,27.0,14.0,-14.0,15.0,-3.0,-1.0,34.0,25.0,24.0,22.0,1.0,43.0,12.0,15.0,23.0,25.0,21.0,7.0,0.0
16:15:00.694 12/08/2009,-1.0,-52.0,-33.0,-18.0,-20.0,-4.0,-6.0,-1.0,-4.0,-24.0,-3.0,-7.0,-11.0,-11.0,-5.0,-10.0,-41.0,2.0,-22.0,6.0,-13.0,-71.0,-29.0,-27.0,10.0,-34.0,-29.0,-43.0,-50.0,19.0,-37.0,-33.0,-31.0,-13.0,-8.0,-11.0,6.0,4.0,-9.0,25.0,22.0,35.0,18.0,24.0,22.0,23.0,26.0,15.0,-8.0,20.0,-4.0,-7.0,36.0,21.0,14.0,20.0,-1.0,36.0,5.0,9.0,23.0,22.0,19.0,4.0,0.0
16:15:00.700 12/08/2009,8.0,-47.0,-29.0,-18.0,-17.0,3.0,-3.0,-5.0,1.0,-15.0,-1.0,6.0,12.0,19.0,3.0,-1.0,-32.0,11.0,-5.0,46.0,42.0,-73.0,-32.0,-31.0,4.0,-35.0,-26.0,-43.0,-54.0,16.0,-34.0,-27.0,-24.0,-4.0,0.0,-2.0,12.0,-1.0,-5.0,1.0,13.0,-38.0,8.0,3.0,8.0,31.0,35.0,29.0,11.0,39.0,19.0,19.0,78.0,54.0,39.0,37.0,19.0,56.0,29.0,32.0,39.0,37.0,33.0,17.0,0.0
16:15:00.706 12/08/2009,20.0,-22.0,-6.0,7.0,8.0,33.0,21.0,17.0,21.0,6.0,21.0,28.0,44.0,65.0,18.0,18.0,-18.0,25.0,3.0,54.0,30.0,-72.0,-25.0,-26.0,4.0,-30.0,-21.0,-41.0,-52.0,20.0,-28.0,-22.0,-18.0,-1.0,3.0,1.0,10.0,-5.0,-3.0,10.0,23.0,37.0,15.0,22.0,14.0,37.0,41.0,32.0,3.0,32.0,12.0,3.0,50.0,35.0,34.0,37.0,17.0,43.0,16.0,23.0,36.0,34.0,29.0,17.0,0.0
16:15:00.713 12/08/2009,10.0,-43.0,-25.0,-10.0,-15.0,-2.0,-1.0,-16.0,-2.0,-21.0,1.0,-11.0,-17.0,-18.0,8.0,2.0,-36.0,1.0,-40.0,-2.0,-39.0,-73.0,-30.0,-33.0,2.0,-35.0,-26.0,-46.0,-54.0,24.0,-29.0,-26.0,-24.0,-7.0,2.0,1.0,13.0,2.0,3.0,42.0,1.0,59.0,-9.0,16.0,10.0,61.0,34.0,29.0,1.0,26.0,2.0,-6.0,29.0,10.0,17.0,27.0,10.0,27.0,0.0,2.0,24.0,21.0,12.0,-3.0,0.0
16:15:00.719 12/08/2009,21.0,-29.0,-17.0,-8.0,-8.0,14.0,24.0,11.0,16.0,-10.0,7.0,5.0,-4.0,37.0,18.0,12.0,-31.0,5.0,-37.0,4.0,-15.0,-80.0,-33.0,-31.0,-2.0,-40.0,-24.0,-44.0,-53.0,8.0,-37.0,-25.0,-21.0,-3.0,5.0,2.0,11.0,6.0,-7.0,24.0,10.0,25.0,13.0,10.0,5.0,48.0,29.0,17.0,-8.0,16.0,-4.0,-7.0,30.0,16.0,17.0,26.0,3.0,25.0,-3.0,3.0,21.0,19.0,9.0,-4.0,0.0
16:15:00.725 12/08/2009,-10.0,-39.0,-17.0,-5.0,-10.0,1.0,-24.0,-21.0,3.0,-14.0,7.0,7.0,-11.0,-2.0,-12.0,-1.0,-34.0,3.0,-29.0,7.0,-18.0,-66.0,-21.0,-23.0,15.0,-30.0,-15.0,-43.0,-54.0,27.0,-27.0,-19.0,-13.0,3.0,6.0,4.0,5.0,-5.0,4.0,16.0,16.0,33.0,18.0,17.0,-5.0,9.0,34.0,33.0,11.0,28.0,3.0,-6.0,42.0,31.0,25.0,33.0,15.0,32.0,6.0,18.0,26.0,26.0,20.0,4.0,0.0
16:15:00.731 12/08/2009,10.0,-26.0,-12.0,3.0,-4.0,8.0,-13.0,3.0,18.0,-7.0,13.0,9.0,-11.0,-13.0,4.0,7.0,-33.0,1.0,-20.0,6.0,-12.0,-72.0,-26.0,-31.0,6.0,-28.0,-17.0,-45.0,-58.0,24.0,-25.0,-11.0,-9.0,5.0,11.0,8.0,6.0,-20.0,3.0,-8.0,8.0,-2.0,-2.0,2.0,14.0,21.0,36.0,24.0,-4.0,16.0,-7.0,-9.0,39.0,20.0,16.0,24.0,-2.0,19.0,-2.0,8.0,13.0,15.0,6.0,-8.0,0.0
16:15:00.738 12/08/2009,22.0,-24.0,-13.0,4.0,4.0,29.0,24.0,13.0,2.0,-16.0,11.0,14.0,8.0,17.0,-12.0,-14.0,-40.0,-7.0,-17.0,12.0,-1.0,-64.0,-15.0,-21.0,17.0,-13.0,-4.0,-35.0,-41.0,36.0,-13.0,3.0,4.0,18.0,23.0,21.0,15.0,-6.0,0.0,5.0,27.0,19.0,6.0,12.0,34.0,47.0,22.0,1.0,-18.0,7.0,-12.0,-16.0,29.0,9.0,15.0,11.0,-14.0,16.0,-7.0,7.0,8.0,13.0,5.0,-10.0,0.0
16:15:00.744 12/08/2009,41.0,-10.0,-4.0,8.0,3.0,23.0,-4.0,7.0,6.0,-18.0,6.0,1.0,-5.0,16.0,-18.0,-16.0,-43.0,-13.0,-31.0,-13.0,-29.0,-61.0,-11.0,-18.0,14.0,-13.0,-8.0,-39.0,-41.0,37.0,-15.0,-3.0,-6.0,11.0,12.0,7.0,8.0,12.0,11.0,37.0,33.0,21.0,-5.0,18.0,18.0,24.0,15.0,2.0,-17.0,-1.0,-20.0,-29.0,21.0,1.0,5.0,8.0,-12.0,12.0,-20.0,1.0,4.0,6.0,2.0,-20.0,0.0
16:15:00.750 12/08/2009,15.0,-39.0,-26.0,-11.0,-17.0,-1.0,-28.0,-7.0,-3.0,-30.0,-5.0,-9.0,-13.0,8.0,-10.0,-13.0,-43.0,-12.0,-29.0,1.0,11.0,-72.0,-21.0,-25.0,6.0,-21.0,-16.0,-46.0,-53.0,35.0,-23.0,-8.0,-11.0,6.0,8.0,6.0,4.0,4.0,7.0,15.0,14.0,-36.0,3.0,-3.0,-3.0,4.0,21.0,12.0,0.0,14.0,-3.0,2.0,62.0,31.0,19.0,20.0,3.0,30.0,-1.0,15.0,14.0,19.0,13.0,-14.0,0.0
16:15:00.756 12/08/2009,21.0,-21.0,-13.0,-1.0,-3.0,22.0,-4.0,-10.0,10.0,-22.0,5.0,5.0,13.0,37.0,-3.0,-3.0,-33.0,-2.0,-16.0,12.0,12.0,-68.0,-14.0,-18.0,11.0,-17.0,-13.0,-42.0,-46.0,35.0,-21.0,-12.0,-13.0,5.0,7.0,5.0,7.0,5.0,19.0,-7.0,8.0,40.0,11.0,11.0,7.0,52.0,24.0,11.0,1.0,8.0,-8.0,-3.0,35.0,2.0,14.0,18.0,-2.0,26.0,-4.0,12.0,17.0,24.0,14.0,-6.0,0.0
16:15:00.763 12/08/2009,-3.0,-50.0,-26.0,-15.0,-14.0,15.0,-2.0,-13.0,-12.0,-41.0,-11.0,-16.0,-9.0,16.0,-12.0,-12.0,-49.0,-18.0,-41.0,-28.0,-35.0,-76.0,-21.0,-28.0,1.0,-29.0,-27.0,-51.0,-52.0,20.0,-36.0,-28.0,-30.0,-12.0,-6.0,-10.0,3.0,6.0,-9.0,18.0,-30.0,45.0,-15.0,13.0,-2.0,30.0,8.0,-3.0,-12.0,-8.0,-26.0,-23.0,16.0,-13.0,-1.0,-2.0,-20.0,7.0,-17.0,1.0,-2.0,5.0,1.0,-24.0,0.0
16:15:00.769 12/08/2009,-3.0,-44.0,-33.0,-30.0,-33.0,-13.0,0.0,-2.0,0.0,-42.0,-23.0,-32.0,-47.0,-26.0,-13.0,-4.0,-54.0,-23.0,-48.0,-29.0,-14.0,-88.0,-32.0,-34.0,-1.0,-31.0,-29.0,-53.0,-56.0,17.0,-32.0,-23.0,-29.0,-12.0,-8.0,-9.0,6.0,2.0,1.0,25.0,14.0,14.0,4.0,15.0,-12.0,26.0,14.0,6.0,-4.0,5.0,-14.0,-11.0,41.0,8.0,18.0,15.0,-2.0,18.0,-1.0,15.0,17.0,23.0,13.0,-8.0,0.0
16:15:00.775 12/08/2009,13.0,-32.0,-23.0,-19.0,-18.0,6.0,2.0,-12.0,-1.0,-35.0,-9.0,-14.0,-20.0,3.0,-3.0,2.0,-40.0,-8.0,-30.0,-5.0,-5.0,-75.0,-15.0,-21.0,8.0,-22.0,-20.0,-45.0,-47.0,26.0,-22.0,-15.0,-23.0,-6.0,-3.0,-6.0,4.0,7.0,11.0,14.0,23.0,26.0,12.0,14.0,-6.0,29.0,28.0,30.0,14.0,20.0,-7.0,-10.0,45.0,5.0,14.0,31.0,10.0,24.0,2.0,14.0,25.0,27.0,16.0,-5.0,0.0
16:15:00.781 12/08/2009,31.0,-34.0,-26.0,-28.0,-25.0,-6.0,-36.0,2.0,4.0,-35.0,-10.0,-20.0,-25.0,-18.0,21.0,16.0,-43.0,-13.0,-40.0,-13.0,-13.0,-87.0,-30.0,-36.0,-3.0,-36.0,-34.0,-64.0,-64.0,18.0,-36.0,-27.0,-37.0,-17.0,-22.0,-24.0,-14.0,-12.0,7.0,19.0,17.0,15.0,-8.0,4.0,10.0,-6.0,24.0,14.0,1.0,6.0,-20.0,-27.0,43.0,14.0,7.0,17.0,-6.0,12.0,-6.0,8.0,12.0,17.0,8.0,-11.0,0.0
16:15:00.788 12/08/2009,6.0,-34.0,-30.0,-41.0,-37.0,-24.0,-48.0,3.0,1.0,-38.0,-17.0,-36.0,-40.0,-41.0,-4.0,3.0,-55.0,-21.0,-44.0,-27.0,-28.0,-86.0,-34.0,-37.0,2.0,-33.0,-35.0,-67.0,-65.0,17.0,-35.0,-23.0,-35.0,-18.0,-25.0,-26.0,-14.0,-11.0,-2.0,5.0,11.0,3.0,1.0,17.0,17.0,30.0,30.0,14.0,-2.0,5.0,-22.0,-36.0,26.0,1.0,8.0,24.0,-2.0,10.0,-11.0,5.0,15.0,22.0,8.0,-3.0,0.0
16:15:00.794 12/08/2009,7.0,-37.0,-33.0,-42.0,-37.0,-13.0,-32.0,-8.0,-4.0,-41.0,-20.0,-42.0,-27.0,-3.0,-10.0,-3.0,-54.0,-23.0,-41.0,-26.0,-26.0,-77.0,-30.0,-33.0,-2.0,-33.0,-34.0,-59.0,-59.0,6.0,-39.0,-27.0,-35.0,-18.0,-18.0,-20.0,-10.0,-3.0,-24.0,-20.0,-12.0,-42.0,3.0,10.0,18.0,15.0,18.0,6.0,-7.0,5.0,-15.0,-21.0,53.0,32.0,27.0,11.0,-7.0,8.0,3.0,17.0,11.0,17.0,12.0,-12.0,0.0
16:15:00.800 12/08/2009,7.0,-49.0,-40.0,-42.0,-32.0,2.0,-24.0,-6.0,-13.0,-51.0,-23.0,-38.0,-4.0,8.0,-17.0,-10.0,-57.0,-17.0,-38.0,3.0,-2.0,-87.0,-36.0,-41.0,-13.0,-44.0,-44.0,-64.0,-62.0,-10.0,-55.0,-45.0,-49.0,-27.0,-21.0,-24.0,-8.0,4.0,-26.0,-2.0,-23.0,29.0,-15.0,2.0,-2.0,34.0,4.0,-6.0,-21.0,-7.0,-29.0,-31.0,26.0,1.0,4.0,1.0,-17.0,-5.0,-20.0,-3.0,3.0,10.0,1.0,-16.0,0.0
16:15:00.806 12/08/2009,-21.0,-62.0,-46.0,-47.0,-40.0,-10.0,-14.0,-12.0,-31.0,-63.0,-33.0,-53.0,-46.0,-26.0,-32.0,-25.0,-63.0,-22.0,-62.0,-38.0,-54.0,-80.0,-27.0,-34.0,0.0,-31.0,-35.0,-58.0,-58.0,8.0,-41.0,-33.0,-39.0,-18.0,-11.0,-13.0,0.0,8.0,8.0,15.0,43.0,37.0,13.0,26.0,-7.0,40.0,24.0,13.0,-12.0,1.0,-22.0,-22.0,30.0,-5.0,2.0,18.0,-4.0,2.0,-12.0,0.0,16.0,21.0,8.0,-4.0,0.0
16:15:00.813 12/08/2009,5.0,-53.0,-29.0,-33.0,-27.0,2.0,-12.0,-44.0,-31.0,-53.0,-19.0,-31.0,-20.0,4.0,-26.0,-23.0,-53.0,-13.0,-42.0,-10.0,-11.0,-73.0,-17.0,-30.0,3.0,-24.0,-26.0,-55.0,-57.0,14.0,-37.0,-24.0,-32.0,-10.0,-3.0,-6.0,2.0,6.0,11.0,6.0,32.0,-14.0,4.0,7.0,27.0,26.0,16.0,-3.0,-14.0,-3.0,-18.0,-24.0,40.0,4.0,9.0,3.0,-14.0,-6.0,-11.0,0.0,4.0,12.0,2.0,-16.0,0.0
16:15:00.819 12/08/2009,-14.0,-52.0,-21.0,-29.0,-21.0,7.0,-10.0,-33.0,-21.0,-47.0,-13.0,-29.0,-11.0,12.0,-29.0,-17.0,-44.0,-13.0,-44.0,-8.0,-21.0,-78.0,-15.0,-23.0,2.0,-25.0,-21.0,-48.0,-50.0,5.0,-40.0,-20.0,-24.0,-1.0,5.0,4.0,10.0,13.0,-6.0,17.0,1.0,33.0,2.0,4.0,1.0,42.0,15.0,-2.0,-8.0,-1.0,-17.0,-20.0,31.0,3.0,12.0,6.0,-12.0,2.0,-11.0,1.0,5.0,15.0,6.0,-16.0,0.0
16:15:00.825 12/08/2009,0.0,-25.0,3.0,-12.0,-5.0,18.0,-7.0,2.0,6.0,-25.0,5.0,-17.0,-7.0,-1.0,-3.0,10.0,-28.0,1.0,-33.0,-4.0,-30.0,-65.0,-6.0,-11.0,14.0,-9.0,-4.0,-37.0,-35.0,17.0,-22.0,6.0,-1.0,19.0,23.0,21.0,20.0,23.0,-14.0,27.0,-12.0,42.0,4.0,20.0,9.0,39.0,26.0,20.0,12.0,18.0,1.0,7.0,42.0,20.0,20.0,20.0,3.0,15.0,3.0,13.0,18.0,28.0,18.0,-5.0,0.0
16:15:00.831 12/08/2009,48.0,8.0,25.0,0.0,5.0,30.0,7.0,14.0,32.0,-12.0,13.0,-8.0,5.0,13.0,13.0,23.0,-31.0,5.0,-20.0,7.0,-14.0,-59.0,-7.0,-13.0,16.0,-7.0,-2.0,-39.0,-35.0,23.0,-18.0,10.0,0.0,17.0,20.0,16.0,16.0,18.0,5.0,31.0,1.0,26.0,7.0,8.0,14.0,34.0,27.0,26.0,13.0,17.0,1.0,10.0,44.0,22.0,18.0,30.0,7.0,18.0,4.0,12.0,29.0,36.0,21.0,7.0,0.0
16:15:00.838 12/08/2009,18.0,-20.0,15.0,-7.0,-1.0,26.0,15.0,-6.0,8.0,-22.0,11.0,-12.0,7.0,10.0,36.0,20.0,-30.0,7.0,-11.0,22.0,11.0,-58.0,-8.0,-8.0,22.0,-4.0,1.0,-34.0,-37.0,45.0,-5.0,13.0,2.0,21.0,22.0,19.0,19.0,24.0,35.0,27.0,54.0,10.0,45.0,11.0,39.0,24.0,65.0,52.0,32.0,35.0,21.0,42.0,77.0,52.0,41.0,76.0,40.0,52.0,36.0,45.0,68.0,77.0,55.0,56.0,0.0
16:15:00.844 12/08/2009,44.0,7.0,34.0,11.0,17.0,37.0,3.0,50.0,26.0,2.0,37.0,7.0,27.0,44.0,22.0,20.0,-6.0,26.0,13.0,41.0,31.0,-46.0,5.0,2.0,36.0,8.0,13.0,-23.0,-32.0,51.0,6.0,34.0,16.0,33.0,29.0,26.0,26.0,34.0,10.0,34.0,65.0,22.0,51.0,13.0,80.0,55.0,76.0,46.0,30.0,33.0,16.0,43.0,54.0,37.0,37.0,63.0,31.0,42.0,14.0,34.0,56.0,61.0,45.0,46.0,0.0
16:15:00.850 12/08/2009,41.0,-1.0,21.0,-5.0,1.0,15.0,-7.0,17.0,10.0,-16.0,15.0,-26.0,-16.0,0.0,1.0,-3.0,-21.0,-7.0,-26.0,-18.0,-50.0,-70.0,-18.0,-20.0,16.0,-16.0,-10.0,-44.0,-56.0,36.0,-14.0,8.0,-8.0,11.0,8.0,6.0,4.0,5.0,37.0,22.0,57.0,39.0,24.0,3.0,59.0,45.0,47.0,14.0,8.0,9.0,-9.0,15.0,29.0,10.0,17.0,34.0,6.0,21.0,-3.0,17.0,36.0,44.0,29.0,29.0,0.0
16:15:00.856 12/08/2009,15.0,-12.0,18.0,-3.0,7.0,28.0,3.0,8.0,13.0,-11.0,24.0,-13.0,3.0,5.0,12.0,9.0,-11.0,5.0,-12.0,17.0,-15.0,-62.0,-12.0,-11.0,28.0,-7.0,-1.0,-32.0,-44.0,47.0,-4.0,18.0,4.0,27.0,27.0,25.0,23.0,15.0,21.0,13.0,38.0,5.0,2.0,2.0,22.0,35.0,34.0,22.0,16.0,22.0,2.0,27.0,50.0,25.0,24.0,29.0,7.0,22.0,11.0,18.0,31.0,40.0,27.0,13.0,0.0
16:15:00.863 12/08/2009,18.0,-5.0,23.0,4.0,14.0,36.0,14.0,-6.0,18.0,-8.0,20.0,-15.0,-2.0,31.0,11.0,8.0,-16.0,3.0,-21.0,6.0,-18.0,-77.0,-23.0,-21.0,6.0,-27.0,-13.0,-41.0,-53.0,14.0,-34.0,-4.0,-15.0,10.0,13.0,8.0,6.0,-1.0,-26.0,14.0,-7.0,1.0,-29.0,-4.0,1.0,11.0,10.0,2.0,-6.0,2.0,-21.0,6.0,24.0,-1.0,0.0,4.0,-15.0,-5.0,-14.0,-6.0,6.0,11.0,-2.0,-20.0,0.0
16:15:00.869 12/08/2009,3.0,-30.0,-2.0,-22.0,-16.0,1.0,-28.0,-16.0,-15.0,-33.0,-6.0,-38.0,-29.0,-16.0,-24.0,-25.0,-41.0,-17.0,-44.0,-6.0,-31.0,-96.0,-42.0,-37.0,-7.0,-41.0,-29.0,-59.0,-70.0,2.0,-45.0,-15.0,-26.0,-2.0,-4.0,-5.0,-10.0,-19.0,-27.0,-2.0,-16.0,-5.0,-25.0,-6.0,-8.0,4.0,2.0,-11.0,-19.0,-3.0,-21.0,3.0,23.0,-3.0,1.0,-1.0,-18.0,-2.0,-12.0,-4.0,1.0,10.0,-2.0,-21.0,0.0
16:15:00.875 12/08/2009,-4.0,-5.0,17.0,-7.0,-4.0,14.0,-32.0,11.0,14.0,-7.0,18.0,-22.0,-3.0,-2.0,4.0,7.0,-15.0,7.0,-23.0,14.0,-26.0,-74.0,-26.0,-22.0,6.0,-21.0,-11.0,-44.0,-59.0,23.0,-22.0,12.0,1.0,22.0,17.0,15.0,11.0,-3.0,-23.0,16.0,-17.0,10.0,-22.0,-2.0,-3.0,28.0,18.0,20.0,9.0,22.0,1.0,22.0,41.0,5.0,9.0,4.0,-8.0,6.0,-6.0,3.0,-2.0,10.0,2.0,-17.0,0.0
16:15:00.881 12/08/2009,16.0,-11.0,14.0,-7.0,-4.0,15.0,-15.0,-10.0,-1.0,-21.0,9.0,-45.0,-20.0,-8.0,-6.0,-5.0,-27.0,-11.0,-51.0,-14.0,-44.0,-92.0,-44.0,-44.0,-23.0,-46.0,-36.0,-66.0,-79.0,14.0,-41.0,-21.0,-30.0,-7.0,-12.0,-15.0,-11.0,-22.0,1.0,14.0,3.0,10.0,-17.0,-7.0,-20.0,-12.0,-7.0,-13.0,-31.0,-14.0,-33.0,-6.0,15.0,-13.0,-9.0,-15.0,-31.0,-15.0,-27.0,-8.0,-13.0,-3.0,-11.0,-26.0,0.0
16:15:00.888 12/08/2009,-23.0,-48.0,-17.0,-34.0,-29.0,-17.0,-44.0,-39.0,-27.0,-39.0,-6.0,-58.0,-44.0,-40.0,-6.0,-6.0,-36.0,-15.0,-51.0,-4.0,-18.0,-95.0,-42.0,-43.0,-17.0,-42.0,-35.0,-64.0,-75.0,16.0,-35.0,-16.0,-24.0,-1.0,-8.0,-9.0,-5.0,-11.0,3.0,11.0,20.0,0.0,-11.0,-3.0,7.0,2.0,15.0,2.0,-14.0,5.0,-15.0,3.0,30.0,3.0,7.0,7.0,-13.0,7.0,-13.0,8.0,5.0,15.0,3.0,-11.0,0.0
16:15:00.894 12/08/2009,10.0,-18.0,1.0,-15.0,-8.0,9.0,-14.0,-3.0,4.0,-17.0,10.0,-41.0,-24.0,-5.0,-10.0,3.0,-26.0,1.0,-39.0,-11.0,-41.0,-82.0,-32.0,-30.0,-13.0,-34.0,-26.0,-51.0,-60.0,17.0,-33.0,-13.0,-18.0,4.0,4.0,1.0,8.0,8.0,12.0,19.0,26.0,13.0,-9.0,10.0,45.0,41.0,17.0,-6.0,-22.0,-2.0,-20.0,-12.0,5.0,-18.0,-2.0,1.0,-21.0,-1.0,-28.0,-3.0,1.0,7.0,-3.0,-19.0,0.0
16:15:00.900 12/08/2009,-9.0,-36.0,-17.0,-29.0,-21.0,1.0,-21.0,-20.0,-20.0,-40.0,-10.0,-54.0,-35.0,-20.0,-35.0,-26.0,-42.0,-14.0,-51.0,-29.0,-61.0,-94.0,-42.0,-36.0,-25.0,-45.0,-37.0,-59.0,-66.0,9.0,-45.0,-24.0,-29.0,-4.0,-4.0,-5.0,-2.0,-2.0,-20.0,13.0,-3.0,5.0,-5.0,6.0,-5.0,9.0,1.0,-13.0,-22.0,-3.0,-22.0,-7.0,9.0,-14.0,-6.0,-6.0,-18.0,4.0,-21.0,-3.0,-1.0,8.0,-3.0,-23.0,0.0
16:15:00.906 12/08/2009,-1.0,-20.0,-4.0,-12.0,-2.0,23.0,-6.0,-18.0,1.0,-14.0,19.0,-14.0,4.0,-2.0,-3.0,3.0,-15.0,18.0,-8.0,18.0,-11.0,-68.0,-16.0,-8.0,2.0,-21.0,-6.0,-29.0,-41.0,22.0,-21.0,2.0,1.0,26.0,31.0,30.0,31.0,22.0,-4.0,32.0,6.0,11.0,11.0,9.0,3.0,27.0,23.0,17.0,14.0,32.0,10.0,27.0,50.0,21.0,19.0,19.0,7.0,26.0,3.0,21.0,17.0,27.0,17.0,-6.0,0.0
16:15:00.913 12/08/2009,26.0,10.0,16.0,5.0,17.0,43.0,17.0,4.0,26.0,1.0,30.0,-8.0,6.0,10.0,9.0,11.0,-17.0,18.0,-18.0,2.0,-24.0,-67.0,-18.0,-12.0,-4.0,-27.0,-14.0,-36.0,-49.0,13.0,-31.0,-9.0,-15.0,9.0,13.0,8.0,12.0,16.0,-3.0,21.0,14.0,7.0,2.0,9.0,16.0,2.0,7.0,-7.0,-16.0,-1.0,-25.0,-7.0,14.0,-9.0,-6.0,-4.0,-20.0,-3.0,-28.0,-2.0,-2.0,5.0,-2.0,-23.0,0.0
16:15:00.919 12/08/2009,-26.0,-47.0,-27.0,-31.0,-18.0,1.0,-42.0,-43.0,-32.0,-42.0,-5.0,-43.0,-20.0,-8.0,-33.0,-29.0,-49.0,-11.0,-36.0,-4.0,-17.0,-81.0,-28.0,-22.0,-7.0,-35.0,-22.0,-49.0,-57.0,21.0,-29.0,-16.0,-19.0,6.0,7.0,6.0,5.0,6.0,22.0,-3.0,20.0,-33.0,11.0,2.0,5.0,5.0,14.0,2.0,-3.0,7.0,-10.0,20.0,45.0,15.0,15.0,12.0,-6.0,17.0,-11.0,19.0,16.0,24.0,15.0,-5.0,0.0
16:15:00.925 12/08/2009,5.0,-11.0,-7.0,-7.0,6.0,28.0,-2.0,0.0,3.0,-16.0,18.0,-20.0,8.0,24.0,5.0,1.0,-21.0,10.0,-14.0,19.0,3.0,-62.0,-17.0,-11.0,5.0,-18.0,-8.0,-37.0,-50.0,39.0,-7.0,3.0,-4.0,17.0,17.0,14.0,11.0,6.0,10.0,24.0,25.0,5.0,11.0,6.0,18.0,11.0,24.0,15.0,6.0,15.0,-6.0,22.0,52.0,26.0,27.0,18.0,-4.0,15.0,-14.0,25.0,14.0,22.0,16.0,-7.0,0.0
16:15:00.931 12/08/2009,23.0,-10.0,-15.0,-14.0,-9.0,7.0,-23.0,-31.0,-5.0,-26.0,7.0,-36.0,-16.0,-16.0,-5.0,-8.0,-29.0,0.0,-30.0,3.0,-13.0,-72.0,-32.0,-27.0,-13.0,-31.0,-25.0,-50.0,-67.0,21.0,-24.0,-11.0,-19.0,4.0,3.0,1.0,-2.0,-6.0,-8.0,8.0,18.0,29.0,6.0,-12.0,0.0,18.0,15.0,8.0,-7.0,1.0,-24.0,-5.0,19.0,-12.0,-3.0,12.0,-14.0,1.0,-44.0,0.0,4.0,6.0,-3.0,-18.0,0.0
16:15:00.938 12/08/2009,14.0,-8.0,-12.0,-13.0,-6.0,16.0,-11.0,-13.0,8.0,-18.0,8.0,-32.0,-2.0,16.0,13.0,7.0,-29.0,10.0,-29.0,-3.0,-31.0,-65.0,-28.0,-22.0,-2.0,-22.0,-16.0,-43.0,-62.0,31.0,-8.0,5.0,-2.0,20.0,16.0,14.0,4.0,1.0,4.0,2.0,-5.0,2.0,5.0,7.0,10.0,43.0,36.0,30.0,12.0,18.0,-8.0,7.0,18.0,-12.0,8.0,31.0,3.0,13.0,-33.0,4.0,19.0,16.0,5.0,-6.0,0.0
16:15:00.944 12/08/2009,52.0,25.0,7.0,-4.0,4.0,12.0,-25.0,41.0,35.0,-1.0,17.0,-34.0,-13.0,-10.0,18.0,6.0,-22.0,14.0,-29.0,-16.0,-40.0,-63.0,-26.0,-22.0,-1.0,-19.0,-18.0,-48.0,-61.0,29.0,-9.0,7.0,-10.0,14.0,5.0,2.0,3.0,8.0,7.0,36.0,26.0,3.0,18.0,17.0,53.0,-2.0,32.0,5.0,-10.0,6.0,-18.0,1.0,17.0,-11.0,3.0,20.0,-10.0,5.0,-33.0,2.0,7.0,6.0,2.0,-18.0,0.0
16:15:00.950 12/08/2009,6.0,-23.0,-27.0,-32.0,-18.0,-13.0,-26.0,-36.0,-13.0,-34.0,-5.0,-54.0,-35.0,-15.0,-17.0,-27.0,-39.0,-7.0,-42.0,-12.0,-22.0,-84.0,-44.0,-40.0,-11.0,-36.0,-36.0,-61.0,-71.0,28.0,-27.0,-20.0,-31.0,-5.0,-7.0,-8.0,-5.0,-3.0,18.0,10.0,27.0,-21.0,15.0,0.0,8.0,8.0,21.0,1.0,-10.0,5.0,-24.0,2.0,18.0,-8.0,14.0,16.0,-6.0,6.0,-35.0,3.0,6.0,9.0,1.0,-20.0,0.0
16:15:00.956 12/08/2009,-8.0,-16.0,-22.0,-26.0,-9.0,4.0,-3.0,-3.0,15.0,-20.0,4.0,-48.0,-23.0,10.0,15.0,6.0,-26.0,2.0,-38.0,-12.0,-23.0,-74.0,-36.0,-32.0,10.0,-21.0,-24.0,-53.0,-67.0,43.0,-11.0,-1.0,-13.0,8.0,-2.0,-4.0,-4.0,-3.0,4.0,32.0,22.0,34.0,5.0,10.0,18.0,23.0,31.0,15.0,3.0,12.0,-22.0,-1.0,4.0,-27.0,-3.0,23.0,3.0,10.0,-41.0,-4.0,17.0,17.0,4.0,-8.0,0.0
16:15:00.963 12/08/2009,34.0,12.0,-13.0,-24.0,-10.0,-10.0,-16.0,12.0,29.0,-14.0,4.0,-54.0,-34.0,-30.0,8.0,4.0,-34.0,-4.0,-39.0,-15.0,-21.0,-78.0,-36.0,-32.0,0.0,-23.0,-23.0,-54.0,-69.0,29.0,-18.0,2.0,-11.0,9.0,1.0,-2.0,-4.0,-6.0,-35.0,24.0,-17.0,-13.0,-1.0,-1.0,24.0,-25.0,24.0,7.0,-8.0,6.0,-18.0,11.0,30.0,-2.0,-3.0,15.0,-5.0,7.0,-34.0,0.0,12.0,13.0,2.0,-16.0,0.0
16:15:00.969 12/08/2009,21.0,6.0,-12.0,-20.0,1.0,3.0,-24.0,-8.0,10.0,-19.0,4.0,-41.0,-4.0,3.0,-18.0,-23.0,-41.0,-2.0,-26.0,6.0,13.0,-84.0,-37.0,-31.0,-5.0,-26.0,-22.0,-50.0,-62.0,36.0,-17.0,-2.0,-12.0,10.0,6.0,5.0,2.0,2.0,20.0,29.0,54.0,-7.0,15.0,-5.0,23.0,26.0,17.0,-6.0,-26.0,-4.0,-23.0,6.0,11.0,-23.0,2.0,11.0,-14.0,3.0,-44.0,-3.0,8.0,10.0,2.0,-13.0,0.0
16:15:00.975 12/08/2009,12.0,-14.0,-12.0,-11.0,11.0,14.0,-2.0,-32.0,-7.0,-22.0,10.0,-40.0,-13.0,15.0,-8.0,-16.0,-31.0,6.0,-31.0,-23.0,-42.0,-67.0,-27.0,-17.0,12.0,-11.0,-8.0,-37.0,-45.0,54.0,1.0,13.0,4.0,21.0,20.0,18.0,16.0,17.0,41.0,33.0,62.0,22.0,17.0,4.0,34.0,43.0,26.0,11.0,-10.0,12.0,-11.0,18.0,16.0,-15.0,11.0,23.0,0.0,12.0,-33.0,7.0,15.0,19.0,11.0,-4.0,0.0
16:15:00.981 12/08/2009,27.0,4.0,-4.0,-4.0,16.0,24.0,6.0,-24.0,12.0,-13.0,19.0,-33.0,0.0,27.0,-1.0,-5.0,-31.0,11.0,-25.0,-8.0,-18.0,-76.0,-33.0,-28.0,3.0,-23.0,-17.0,-49.0,-62.0,28.0,-15.0,5.0,-1.0,16.0,13.0,11.0,-2.0,-11.0,-11.0,-24.0,17.0,-8.0,19.0,-9.0,4.0,13.0,15.0,1.0,-16.0,5.0,-14.0,13.0,17.0,-12.0,4.0,7.0,-10.0,6.0,-34.0,1.0,4.0,9.0,1.0,-16.0,0.0
16:15:00.988 12/08/2009,1.0,-5.0,-9.0,-8.0,11.0,22.0,-10.0,-45.0,4.0,-16.0,15.0,-41.0,-12.0,-1.0,-3.0,-5.0,-37.0,5.0,-30.0,-12.0,-23.0,-77.0,-30.0,-23.0,6.0,-21.0,-10.0,-43.0,-53.0,26.0,-6.0,13.0,10.0,26.0,20.0,20.0,11.0,12.0,-25.0,29.0,-12.0,14.0,8.0,3.0,-3.0,10.0,24.0,18.0,4.0,21.0,-1.0,23.0,27.0,-5.0,12.0,22.0,6.0,21.0,-21.0,12.0,20.0,24.0,14.0,-1.0,0.0
16:15:00.994 12/08/2009,70.0,46.0,26.0,15.0,31.0,27.0,6.0,28.0,57.0,21.0,38.0,-20.0,-3.0,-5.0,39.0,34.0,-8.0,23.0,-5.0,13.0,4.0,-53.0,-11.0,-2.0,23.0,3.0,11.0,-23.0,-31.0,42.0,20.0,37.0,31.0,42.0,40.0,37.0,28.0,34.0,-8.0,58.0,14.0,17.0,-6.0,-3.0,49.0,10.0,40.0,29.0,17.0,32.0,12.0,42.0,54.0,30.0,40.0,33.0,14.0,31.0,-2.0,38.0,31.0,36.0,32.0,11.0,0.0
16:15:01.000 12/08/2009,41.0,24.0,15.0,13.0,30.0,35.0,13.0,-3.0,39.0,7.0,35.0,-14.0,13.0,38.0,11.0,14.0,-18.0,18.0,3.0,35.0,49.0,-77.0,-32.0,-21.0,0.0,-20.0,-9.0,-45.0,-59.0,12.0,-11.0,6.0,8.0,22.0,21.0,17.0,1.0,4.0,37.0,16.0,46.0,-4.0,16.0,-28.0,35.0,-2.0,27.0,6.0,-9.0,14.0,0.0,32.0,55.0,26.0,38.0,20.0,-1.0,26.0,-7.0,29.0,22.0,29.0,22.0,1.0,12587.0
16:15:01.006 12/08/2009,-7.0,-11.0,-2.0,2.0,18.0,22.0,-31.0,-35.0,-8.0,-10.0,24.0,-22.0,2.0,-7.0,-14.0,-13.0,-36.0,4.0,-16.0,7.0,-2.0,-80.0,-31.0,-18.0,4.0,-21.0,-8.0,-45.0,-61.0,23.0,-4.0,8.0,11.0,25.0,19.0,17.0,6.0,14.0,46.0,31.0,56.0,31.0,31.0,-1.0,31.0,43.0,23.0,4.0,-15.0,12.0,-7.0,8.0,16.0,-26.0,3.0,18.0,-6.0,22.0,-26.0,5.0,20.0,21.0,8.0,-5.0,12587.0
16:15:01.013 12/08/2009,24.0,13.0,14.0,10.0,27.0,34.0,-1.0,-16.0,5.0,0.0,27.0,-26.0,-2.0,4.0,-8.0,-8.0,-31.0,4.0,-26.0,-18.0,-42.0,-74.0,-29.0,-18.0,5.0,-14.0,-2.0,-37.0,-62.0,22.0,1.0,16.0,17.0,33.0,28.0,26.0,9.0,11.0,14.0,21.0,18.0,31.0,3.0,-10.0,19.0,31.0,15.0,1.0,-18.0,6.0,-16.0,-1.0,11.0,-25.0,3.0,4.0,-17.0,11.0,-31.0,-2.0,1.0,2.0,-6.0,-21.0,5140.0
16:15:01.019 12/08/2009,28.0,20.0,16.0,11.0,27.0,31.0,-6.0,-8.0,23.0,7.0,27.0,-24.0,-3.0,5.0,12.0,9.0,-21.0,5.0,-22.0,-7.0,-15.0,-77.0,-33.0,-20.0,2.0,-13.0,2.0,-36.0,-64.0,6.0,-2.0,19.0,21.0,37.0,33.0,30.0,12.0,12.0,11.0,33.0,6.0,18.0,-8.0,-15.0,14.0,20.0,25.0,12.0,-5.0,20.0,-3.0,11.0,38.0,3.0,23.0,21.0,0.0,25.0,-13.0,20.0,17.0,19.0,7.0,-7.0,5140.0
16:15:01.025 12/08/2009,45.0,46.0,33.0,26.0,43.0,49.0,6.0,23.0,46.0,26.0,45.0,-2.0,41.0,21.0,23.0,27.0,-4.0,20.0,2.0,32.0,13.0,-67.0,-25.0,-11.0,13.0,-7.0,7.0,-30.0,-58.0,14.0,1.0,20.0,22.0,35.0,36.0,32.0,17.0,14.0,17.0,16.0,24.0,11.0,15.0,-5.0,38.0,33.0,40.0,22.0,-2.0,21.0,-5.0,5.0,35.0,-10.0,9.0,29.0,-1.0,19.0,-24.0,12.0,20.0,18.0,5.0,-6.0,0.0
16:15:01.031 12/08/2009,11.0,-9.0,-7.0,-4.0,12.0,32.0,8.0,-47.0,-12.0,-17.0,10.0,-40.0,-2.0,24.0,-4.0,-8.0,-35.0,-16.0,-34.0,-18.0,-22.0,-99.0,-53.0,-42.0,-14.0,-40.0,-29.0,-62.0,-89.0,-14.0,-32.0,-20.0,-18.0,-3.0,-3.0,-5.0,-12.0,-17.0,-4.0,12.0,35.0,30.0,2.0,-14.0,14.0,12.0,19.0,2.0,-24.0,0.0,-27.0,-21.0,12.0,-11.0,3.0,14.0,-16.0,8.0,-35.0,5.0,8.0,9.0,-4.0,-17.0,0.0
16:15:01.038 12/08/2009,-1.0,-21.0,-26.0,-23.0,-15.0,-5.0,-27.0,-42.0,-12.0,-22.0,-3.0,-53.0,-51.0,-24.0,3.0,-6.0,-35.0,-17.0,-41.0,-29.0,-20.0,-108.0,-55.0,-42.0,-17.0,-41.0,-30.0,-61.0,-87.0,-23.0,-30.0,-9.0,-12.0,5.0,-2.0,-1.0,-2.0,-5.0,-6.0,41.0,2.0,27.0,4.0,-3.0,7.0,24.0,31.0,23.0,-1.0,25.0,-3.0,-6.0,26.0,2.0,16.0,29.0,3.0,33.0,-18.0,19.0,25.0,26.0,12.0,0.0,0.0
16:15:01.044 12/08/2009,16.0,19.0,6.0,4.0,8.0,18.0,-3.0,-1.0,38.0,10.0,23.0,-20.0,-15.0,-19.0,36.0,29.0,-10.0,9.0,-14.0,11.0,11.0,-87.0,-36.0,-24.0,3.0,-25.0,-16.0,-46.0,-72.0,-6.0,-14.0,1.0,-2.0,13.0,10.0,7.0,5.0,-2.0,16.0,8.0,31.0,13.0,13.0,-23.0,50.0,-3.0,32.0,11.0,-12.0,17.0,-4.0,-10.0,31.0,5.0,11.0,23.0,-10.0,23.0,-27.0,11.0,18.0,18.0,3.0,-5.0,0.0
16:15:01.050 12/08/2009,3.0,-16.0,-20.0,-17.0,-7.0,9.0,-28.0,-42.0,-19.0,-29.0,-4.0,-44.0,-21.0,2.0,-30.0,-29.0,-45.0,-22.0,-40.0,-29.0,-43.0,-103.0,-52.0,-40.0,-12.0,-46.0,-34.0,-61.0,-86.0,-20.0,-30.0,-22.0,-23.0,-6.0,-10.0,-11.0,-14.0,-10.0,15.0,-13.0,37.0,-27.0,10.0,-25.0,33.0,18.0,21.0,-4.0,-29.0,-5.0,-23.0,-31.0,8.0,-25.0,3.0,22.0,-16.0,7.0,-38.0,3.0,13.0,15.0,-5.0,-7.0,0.0
16:15:01.056 12/08/2009,11.0,-5.0,-11.0,-9.0,2.0,20.0,-32.0,-18.0,-3.0,-10.0,12.0,-23.0,15.0,33.0,-4.0,-3.0,-27.0,-1.0,-8.0,18.0,30.0,-93.0,-43.0,-29.0,0.0,-33.0,-19.0,-49.0,-81.0,-18.0,-20.0,-3.0,-1.0,16.0,8.0,8.0,1.0,-2.0,21.0,39.0,38.0,-2.0,24.0,-23.0,31.0,-8.0,49.0,37.0,18.0,34.0,12.0,17.0,63.0,40.0,52.0,50.0,18.0,33.0,1.0,40.0,39.0,40.0,23.0,12.0,0.0
16:15:01.063 12/08/2009,30.0,14.0,8.0,7.0,11.0,17.0,-11.0,-8.0,30.0,10.0,20.0,-20.0,6.0,-11.0,33.0,21.0,-17.0,5.0,-7.0,31.0,49.0,-93.0,-49.0,-36.0,-7.0,-33.0,-26.0,-58.0,-87.0,-14.0,-20.0,-10.0,-12.0,1.0,-4.0,-8.0,-16.0,-27.0,12.0,-8.0,16.0,7.0,0.0,-32.0,27.0,8.0,27.0,8.0,-13.0,3.0,-23.0,-13.0,15.0,-18.0,-17.0,8.0,-21.0,-8.0,-44.0,-7.0,1.0,-2.0,-16.0,-27.0,0.0
16:15:01.069 12/08/2009,-4.0,-25.0,-30.0,-30.0,-23.0,-6.0,-29.0,-58.0,-20.0,-34.0,-21.0,-61.0,-25.0,-31.0,-27.0,-33.0,-60.0,-38.0,-61.0,-44.0,-71.0,-119.0,-71.0,-54.0,-31.0,-57.0,-50.0,-77.0,-96.0,-44.0,-56.0,-34.0,-35.0,-23.0,-27.0,-27.0,-25.0,-27.0,-37.0,23.0,-20.0,61.0,0.0,-14.0,1.0,43.0,-1.0,-21.0,-30.0,-20.0,-46.0,-51.0,-38.0,-61.0,-28.0,-5.0,-33.0,-19.0,-61.0,-17.0,-6.0,-2.0,-23.0,-22.0,0.0
16:15:01.075 12/08/2009,-6.0,-5.0,-23.0,-33.0,-30.0,-21.0,-25.0,-24.0,2.0,-22.0,-21.0,-77.0,-65.0,-45.0,-4.0,-16.0,-48.0,-34.0,-62.0,-67.0,-76.0,-99.0,-54.0,-34.0,-12.0,-41.0,-35.0,-60.0,-75.0,-33.0,-40.0,-20.0,-21.0,-12.0,-16.0,-17.0,-9.0,-3.0,-10.0,53.0,15.0,41.0,20.0,8.0,16.0,15.0,15.0,-7.0,-17.0,-9.0,-30.0,-43.0,-7.0,-19.0,-1.0,9.0,-23.0,-1.0,-30.0,6.0,8.0,14.0,-2.0,-4.0,0.0
16:15:01.081 12/08/2009,-10.0,-24.0,-26.0,-30.0,-24.0,-14.0,-32.0,-34.0,-16.0,-28.0,-13.0,-69.0,-48.0,-10.0,-17.0,-24.0,-48.0,-26.0,-42.0,-35.0,-23.0,-95.0,-54.0,-36.0,-10.0,-40.0,-35.0,-64.0,-82.0,-17.0,-33.0,-23.0,-25.0,-16.0,-20.0,-23.0,-20.0,-21.0,14.0,5.0,7.0,-23.0,8.0,-14.0,-10.0,2.0,12.0,-6.0,-15.0,-8.0,-30.0,-44.0,2.0,-22.0,-10.0,-2.0,-30.0,-6.0,-34.0,-6.0,-3.0,2.0,-13.0,-17.0,0.0
16:15:01.088 12/08/2009,-25.0,-30.0,-30.0,-33.0,-24.0,-8.0,-25.0,-65.0,-20.0,-30.0,-10.0,-62.0,-34.0,-10.0,-10.0,-19.0,-52.0,-23.0,-40.0,-43.0,-41.0,-99.0,-52.0,-35.0,-10.0,-41.0,-36.0,-61.0,-80.0,-26.0,-38.0,-23.0,-22.0,-15.0,-18.0,-19.0,-13.0,-10.0,-3.0,34.0,12.0,36.0,7.0,-10.0,42.0,12.0,22.0,-11.0,-13.0,-1.0,-23.0,-29.0,10.0,-25.0,-1.0,8.0,-21.0,6.0,-27.0,8.0,9.0,14.0,-1.0,-3.0,0.0
16:15:01.094 12/08/2009,5.0,-6.0,-16.0,-16.0,-7.0,3.0,-4.0,-8.0,-8.0,-13.0,8.0,-41.0,-15.0,-6.0,-3.0,-14.0,-29.0,1.0,-16.0,-4.0,10.0,-79.0,-32.0,-15.0,12.0,-21.0,-17.0,-42.0,-62.0,-6.0,-17.0,-5.0,-4.0,3.0,3.0,1.0,1.0,2.0,9.0,36.0,47.0,3.0,24.0,-10.0,65.0,3.0,40.0,10.0,5.0,18.0,1.0,6.0,48.0,21.0,30.0,24.0,-5.0,23.0,-7.0,30.0,22.0,22.0,13.0,2.0,0.0
16:15:01.100 12/08/2009,18.0,-12.0,-18.0,-8.0,5.0,28.0,12.0,-35.0,-15.0,-11.0,17.0,-23.0,25.0,34.0,-10.0,-15.0,-13.0,10.0,1.0,40.0,56.0,-86.0,-41.0,-25.0,5.0,-24.0,-21.0,-43.0,-69.0,-13.0,-21.0,-7.0,-7.0,4.0,10.0,8.0,3.0,-5.0,2.0,-16.0,52.0,-64.0,19.0,-29.0,38.0,-38.0,45.0,26.0,24.0,41.0,26.0,41.0,89.0,65.0,67.0,43.0,21.0,55.0,32.0,63.0,44.0,50.0,40.0,20.0,0.0
16:15:01.106 12/08/2009,39.0,18.0,5.0,15.0,35.0,66.0,25.0,3.0,27.0,25.0,51.0,23.0,93.0,65.0,30.0,29.0,27.0,51.0,58.0,124.0,133.0,-63.0,-22.0,-4.0,27.0,-3.0,0.0,-29.0,-56.0,3.0,-3.0,13.0,12.0,20.0,20.0,16.0,-4.0,-16.0,17.0,-29.0,36.0,-54.0,30.0,-34.0,50.0,-6.0,45.0,30.0,32.0,44.0,25.0,36.0,68.0,48.0,39.0,37.0,13.0,43.0,13.0,38.0,38.0,40.0,26.0,11.0,0.0
16:15:01.113 12/08/2009,12.0,-13.0,-34.0,-32.0,-22.0,-14.0,-39.0,-39.0,-17.0,-29.0,-17.0,-77.0,-59.0,-55.0,-14.0,-28.0,-52.0,-35.0,-68.0,-92.0,-127.0,-112.0,-69.0,-61.0,-32.0,-66.0,-61.0,-91.0,-113.0,-45.0,-63.0,-55.0,-63.0,-53.0,-59.0,-63.0,-55.0,-53.0,-39.0,41.0,-19.0,90.0,-15.0,3.0,-1.0,45.0,-14.0,-39.0,-40.0,-46.0,-76.0,-92.0,-91.0,-95.0,-46.0,-23.0,-54.0,-29.0,-84.0,-37.0,-18.0,-15.0,-31.0,-33.0,0.0
16:15:01.119 12/08/2009,-33.0,-59.0,-83.0,-79.0,-68.0,-60.0,-42.0,-63.0,-52.0,-58.0,-46.0,-103.0,-109.0,-62.0,-39.0,-44.0,-77.0,-49.0,-71.0,-73.0,-57.0,-108.0,-61.0,-48.0,-23.0,-59.0,-43.0,-64.0,-88.0,-38.0,-49.0,-34.0,-33.0,-22.0,-24.0,-23.0,-10.0,-16.0,1.0,44.0,3.0,19.0,3.0,-9.0,2.0,-24.0,7.0,-8.0,-1.0,4.0,-12.0,-7.0,39.0,40.0,34.0,11.0,-11.0,31.0,-1.0,36.0,21.0,34.0,22.0,4.0,0.0
16:15:01.125 12/08/2009,7.0,13.0,-13.0,-5.0,17.0,38.0,25.0,-8.0,18.0,9.0,32.0,6.0,37.0,27.0,23.0,17.0,-9.0,27.0,35.0,83.0,99.0,-55.0,-15.0,2.0,30.0,-6.0,12.0,-11.0,-43.0,9.0,-3.0,15.0,21.0,30.0,35.0,32.0,33.0,0.0,38.0,2.0,23.0,-33.0,24.0,-30.0,32.0,-29.0,35.0,30.0,36.0,46.0,36.0,48.0,105.0,114.0,98.0,33.0,16.0,63.0,39.0,72.0,41.0,53.0,51.0,17.0,0.0
16:15:01.131 12/08/2009,14.0,14.0,2.0,17.0,44.0,76.0,48.0,-29.0,22.0,16.0,46.0,31.0,97.0,115.0,38.0,21.0,-3.0,35.0,46.0,93.0,108.0,-70.0,-27.0,-17.0,15.0,-17.0,-1.0,-32.0,-68.0,4.0,-8.0,5.0,8.0,15.0,20.0,17.0,-8.0,-53.0,25.0,-78.0,-7.0,-111.0,-1.0,-59.0,26.0,-38.0,33.0,30.0,37.0,38.0,29.0,36.0,81.0,68.0,52.0,28.0,12.0,52.0,13.0,41.0,27.0,33.0,24.0,-10.0,0.0
16:15:01.138 12/08/2009,26.0,11.0,-12.0,1.0,23.0,42.0,9.0,18.0,18.0,10.0,24.0,-3.0,37.0,2.0,14.0,6.0,-16.0,8.0,-2.0,11.0,13.0,-91.0,-44.0,-36.0,-1.0,-33.0,-25.0,-55.0,-78.0,-24.0,-22.0,-8.0,-14.0,-8.0,-18.0,-20.0,-22.0,-21.0,-14.0,49.0,-12.0,87.0,-11.0,-8.0,25.0,44.0,19.0,4.0,8.0,3.0,-16.0,-41.0,-38.0,-46.0,-22.0,22.0,-2.0,26.0,-44.0,-7.0,18.0,18.0,-3.0,-14.0,0.0
16:15:01.144 12/08/2009,21.0,10.0,-31.0,-30.0,-25.0,-39.0,-32.0,-1.0,6.0,-8.0,-5.0,-58.0,-80.0,-77.0,-12.0,-5.0,-31.0,-15.0,-37.0,-45.0,-4.0,-80.0,-32.0,-22.0,10.0,-26.0,-20.0,-40.0,-55.0,-16.0,-22.0,-10.0,-11.0,-3.0,-11.0,-12.0,7.0,16.0,22.0,61.0,52.0,40.0,14.0,-8.0,21.0,-23.0,24.0,15.0,17.0,21.0,11.0,6.0,49.0,62.0,60.0,26.0,12.0,53.0,6.0,45.0,25.0,34.0,25.0,-3.0,0.0
16:15:01.150 12/08/2009,-3.0,-20.0,-35.0,-17.0,1.0,17.0,32.0,-62.0,-20.0,-16.0,12.0,-17.0,2.0,39.0,-15.0,-15.0,-32.0,-3.0,2.0,21.0,59.0,-89.0,-42.0,-36.0,2.0,-34.0,-28.0,-52.0,-82.0,-30.0,-36.0,-27.0,-21.0,-11.0,-13.0,-16.0,-20.0,-38.0,2.0,1.0,17.0,-14.0,-13.0,-30.0,16.0,34.0,5.0,-13.0,-6.0,-5.0,-17.0,-21.0,-7.0,-17.0,12.0,3.0,-18.0,21.0,-43.0,-5.0,0.0,6.0,-9.0,-26.0,0.0
16:15:01.156 12/08/2009,-6.0,-23.0,-44.0,-25.0,-12.0,3.0,-10.0,-48.0,-17.0,-25.0,-4.0,-43.0,-16.0,39.0,-8.0,-20.0,-46.0,-23.0,-36.0,-54.0,-41.0,-87.0,-39.0,-31.0,6.0,-30.0,-20.0,-43.0,-65.0,-42.0,-31.0,-13.0,-8.0,2.0,-2.0,-2.0,-3.0,-15.0,-20.0,27.0,-24.0,10.0,-16.0,-28.0,20.0,131.0,16.0,2.0,9.0,8.0,-6.0,-11.0,0.0,-39.0,-14.0,15.0,-6.0,34.0,-33.0,4.0,12.0,23.0,6.0,-12.0,0.0
16:15:01.163 12/08/2009,41.0,26.0,-2.0,18.0,36.0,57.0,46.0,-6.0,24.0,15.0,41.0,13.0,60.0,102.0,10.0,9.0,-12.0,21.0,18.0,46.0,92.0,-55.0,-8.0,-5.0,31.0,0.0,12.0,-14.0,-45.0,-10.0,0.0,17.0,21.0,32.0,30.0,27.0,15.0,-15.0,20.0,-25.0,25.0,-58.0,2.0,-26.0,27.0,-4.0,25.0,10.0,17.0,23.0,20.0,25.0,77.0,56.0,44.0,16.0,-3.0,45.0,7.0,45.0,17.0,32.0,25.0,-10.0,0.0
16:15:01.169 12/08/2009,21.0,19.0,2.0,27.0,44.0,64.0,30.0,-34.0,18.0,21.0,59.0,36.0,105.0,58.0,13.0,16.0,0.0,45.0,53.0,118.0,145.0,-59.0,-8.0,-12.0,30.0,2.0,13.0,-22.0,-63.0,0.0,2.0,19.0,28.0,42.0,32.0,30.0,2.0,-35.0,40.0,-55.0,36.0,-64.0,28.0,-41.0,26.0,-149.0,46.0,36.0,48.0,58.0,58.0,63.0,143.0,144.0,116.0,48.0,33.0,81.0,56.0,93.0,48.0,61.0,54.0,14.0,0.0
16:15:01.175 12/08/2009,21.0,37.0,25.0,43.0,52.0,61.0,30.0,-2.0,42.0,36.0,61.0,25.0,44.0,2.0,43.0,35.0,3.0,40.0,27.0,45.0,52.0,-46.0,2.0,0.0,40.0,7.0,16.0,-13.0,-49.0,3.0,6.0,19.0,20.0,26.0,10.0,5.0,12.0,-6.0,16.0,54.0,11.0,77.0,13.0,-43.0,30.0,57.0,27.0,11.0,9.0,7.0,-18.0,-52.0,-32.0,-65.0,-18.0,14.0,-13.0,10.0,-67.0,-24.0,3.0,2.0,-16.0,-31.0,0.0
16:15:01.181 12/08/2009,12.0,-7.0,-34.0,-26.0,-36.0,-49.0,-54.0,-37.0,-21.0,-34.0,-22.0,-80.0,-95.0,-68.0,-21.0,-37.0,-68.0,-42.0,-74.0,-102.0,-110.0,-86.0,-40.0,-37.0,2.0,-30.0,-22.0,-46.0,-78.0,-24.0,-21.0,-7.0,-11.0,-1.0,-19.0,-19.0,-19.0,-52.0,-1.0,-2.0,8.0,-13.0,-7.0,-24.0,15.0,28.0,11.0,-2.0,-3.0,7.0,-4.0,-33.0,5.0,-33.0,-3.0,14.0,-6.0,34.0,-20.0,24.0,15.0,26.0,13.0,-18.0,0.0
16:15:01.188 12/08/2009,28.0,15.0,-10.0,7.0,11.0,22.0,7.0,-23.0,10.0,9.0,31.0,2.0,22.0,2.0,13.0,4.0,-13.0,16.0,14.0,18.0,-78.0,-70.0,-30.0,-25.0,15.0,-14.0,-5.0,-39.0,-71.0,-16.0,-12.0,5.0,6.0,17.0,-7.0,-9.0,-20.0,-42.0,-10.0,-3.0,3.0,2.0,-8.0,-29.0,4.0,-18.0,18.0,9.0,3.0,19.0,8.0,-32.0,-4.0,-42.0,-42.0,13.0,-11.0,24.0,-30.0,3.0,10.0,15.0,2.0,-25.0,0.0
16:15:01.194 12/08/2009,9.0,4.0,-18.0,0.0,0.0,2.0,-5.0,-39.0,3.0,-5.0,13.0,-32.0,-24.0,29.0,-2.0,-10.0,-27.0,-6.0,-28.0,-58.0,-158.0,-86.0,-40.0,-31.0,-2.0,-29.0,-10.0,-29.0,-62.0,-37.0,-26.0,0.0,5.0,21.0,7.0,7.0,15.0,-18.0,-13.0,-6.0,6.0,-14.0,4.0,-26.0,30.0,67.0,24.0,16.0,12.0,33.0,30.0,-4.0,39.0,-14.0,3.0,25.0,6.0,55.0,12.0,43.0,27.0,42.0,38.0,3.0,0.0
16:15:01.200 12/08/2009,33.0,42.0,29.0,60.0,77.0,109.0,84.0,15.0,48.0,52.0,90.0,82.0,128.0,114.0,38.0,41.0,34.0,78.0,99.0,146.0,104.0,-31.0,14.0,16.0,67.0,33.0,44.0,15.0,-30.0,41.0,40.0,55.0,63.0,72.0,61.0,58.0,44.0,-11.0,71.0,-22.0,71.0,-89.0,59.0,-62.0,68.0,-103.0,62.0,55.0,57.0,79.0,86.0,77.0,155.0,148.0,119.0,55.0,41.0,94.0,90.0,117.0,52.0,68.0,74.0,23.0,0.0
16:15:01.206 12/08/2009,74.0,75.0,54.0,76.0,75.0,63.0,9.0,52.0,74.0,68.0,92.0,54.0,61.0,-13.0,66.0,62.0,46.0,72.0,75.0,90.0,23.0,-14.0,30.0,32.0,76.0,45.0,46.0,18.0,-18.0,44.0,45.0,50.0,56.0,61.0,41.0,38.0,37.0,2.0,51.0,59.0,51.0,49.0,43.0,-29.0,56.0,25.0,52.0,43.0,40.0,49.0,34.0,-2.0,18.0,11.0,2.0,32.0,12.0,40.0,3.0,26.0,24.0,26.0,20.0,-6.0,0.0
16:15:01.213 12/08/2009,42.0,26.0,7.0,23.0,15.0,2.0,-7.0,-10.0,17.0,9.0,27.0,-31.0,-39.0,-29.0,18.0,5.0,-17.0,-5.0,-22.0,-59.0,-123.0,-75.0,-27.0,-25.0,9.0,-17.0,-13.0,-35.0,-68.0,-16.0,-16.0,-11.0,-7.0,6.0,-14.0,-15.0,-12.0,-50.0,5.0,16.0,23.0,-52.0,11.0,-31.0,21.0,103.0,11.0,2.0,-9.0,2.0,-13.0,-48.0,-36.0,-43.0,-47.0,-2.0,-21.0,8.0,-43.0,-16.0,-2.0,1.0,-10.0,-31.0,0.0
16:15:01.219 12/08/2009,22.0,3.0,-9.0,6.0,12.0,16.0,-8.0,-23.0,3.0,4.0,25.0,-3.0,18.0,53.0,2.0,4.0,-14.0,12.0,8.0,4.0,-50.0,-69.0,-14.0,-14.0,26.0,-10.0,2.0,-18.0,-55.0,1.0,1.0,4.0,12.0,24.0,8.0,8.0,20.0,-31.0,26.0,23.0,42.0,41.0,22.0,-39.0,17.0,8.0,27.0,19.0,13.0,21.0,8.0,-21.0,8.0,26.0,-17.0,21.0,-3.0,30.0,-15.0,6.0,17.0,20.0,6.0,-14.0,0.0
16:15:01.225 12/08/2009,26.0,16.0,0.0,10.0,12.0,12.0,15.0,-11.0,13.0,4.0,14.0,-29.0,-42.0,-44.0,10.0,4.0,-21.0,-1.0,-25.0,-51.0,-102.0,-72.0,-17.0,-15.0,18.0,-19.0,-5.0,-22.0,-56.0,-9.0,-12.0,-10.0,-3.0,9.0,-7.0,-10.0,12.0,-33.0,11.0,11.0,24.0,45.0,17.0,-15.0,24.0,-8.0,17.0,9.0,4.0,2.0,-18.0,-50.0,-36.0,-40.0,-64.0,10.0,-19.0,7.0,-44.0,-23.0,5.0,6.0,-6.0,-19.0,0.0
16:15:01.231 12/08/2009,9.0,-1.0,-19.0,-11.0,-6.0,-18.0,-5.0,-27.0,-2.0,-10.0,2.0,-39.0,-53.0,-59.0,7.0,-3.0,-27.0,-14.0,-27.0,-51.0,-89.0,-83.0,-31.0,-34.0,10.0,-24.0,-14.0,-40.0,-82.0,-17.0,-17.0,-13.0,-5.0,6.0,-12.0,-13.0,-10.0,-80.0,11.0,-34.0,29.0,-16.0,26.0,-53.0,32.0,-3.0,29.0,21.0,19.0,17.0,3.0,-12.0,10.0,18.0,-18.0,31.0,3.0,35.0,-8.0,15.0,27.0,28.0,16.0,-3.0,0.0
16:15:01.238 12/08/2009,29.0,25.0,10.0,20.0,32.0,36.0,10.0,-2.0,26.0,23.0,38.0,20.0,43.0,35.0,37.0,30.0,10.0,29.0,36.0,33.0,-2.0,-58.0,-6.0,-8.0,35.0,6.0,15.0,-13.0,-59.0,10.0,13.0,17.0,26.0,37.0,20.0,18.0,21.0,-42.0,36.0,-2.0,52.0,7.0,54.0,-56.0,44.0,-35.0,54.0,43.0,40.0,43.0,34.0,31.0,63.0,97.0,46.0,46.0,22.0,61.0,32.0,54.0,40.0,43.0,38.0,11.0,0.0
16:15:01.244 12/08/2009,49.0,37.0,27.0,34.0,43.0,43.0,20.0,7.0,32.0,28.0,38.0,13.0,20.0,12.0,39.0,27.0,3.0,26.0,25.0,16.0,-11.0,-52.0,-9.0,-12.0,27.0,0.0,5.0,-20.0,-64.0,7.0,4.0,4.0,6.0,14.0,-5.0,-10.0,8.0,-45.0,21.0,25.0,30.0,-2.0,32.0,-44.0,34.0,12.0,23.0,2.0,-11.0,-11.0,-27.0,-45.0,-42.0,-25.0,-31.0,-5.0,-32.0,-9.0,-53.0,-30.0,-12.0,-16.0,-25.0,-35.0,0.0
16:15:01.250 12/08/2009,2.0,-25.0,-39.0,-34.0,-37.0,-57.0,-48.0,-50.0,-36.0,-46.0,-45.0,-95.0,-120.0,-74.0,-30.0,-43.0,-74.0,-59.0,-85.0,-139.0,-135.0,-96.0,-54.0,-60.0,-16.0,-49.0,-43.0,-64.0,-103.0,-34.0,-40.0,-41.0,-40.0,-30.0,-53.0,-53.0,-19.0,-81.0,-9.0,3.0,-6.0,22.0,3.0,-22.0,-8.0,10.0,-7.0,-26.0,-33.0,-35.0,-56.0,-83.0,-90.0,-88.0,-86.0,-11.0,-35.0,-15.0,-69.0,-45.0,-10.0,-11.0,-29.0,-31.0,0.0
16:15:01.256 12/08/2009,7.0,-10.0,-26.0,-23.0,-21.0,-30.0,-11.0,-22.0,-9.0,-16.0,-14.0,-51.0,-58.0,-42.0,7.0,-5.0,-33.0,-12.0,-22.0,-48.0,-55.0,-63.0,-17.0,-25.0,21.0,-11.0,-5.0,-27.0,-71.0,-4.0,-2.0,-4.0,3.0,13.0,-6.0,-6.0,22.0,-63.0,30.0,4.0,29.0,38.0,37.0,-43.0,32.0,33.0,37.0,26.0,24.0,25.0,10.0,-6.0,10.0,3.0,-17.0,36.0,10.0,36.0,-1.0,15.0,29.0,30.0,17.0,1.0,0.0
16:15:01.263 12/08/2009,23.0,7.0,-1.0,3.0,13.0,21.0,18.0,-16.0,3.0,-1.0,3.0,-22.0,-2.0,21.0,13.0,-4.0,-20.0,-2.0,-11.0,-18.0,-51.0,-72.0,-29.0,-39.0,2.0,-27.0,-19.0,-42.0,-85.0,-20.0,-26.0,-27.0,-22.0,-7.0,-24.0,-28.0,4.0,-78.0,5.0,3.0,5.0,10.0,12.0,-63.0,16.0,33.0,12.0,1.0,-8.0,-9.0,-30.0,-37.0,-30.0,-34.0,-42.0,2.0,-22.0,3.0,-32.0,-12.0,4.0,3.0,-8.0,-24.0,0.0
16:15:01.269 12/08/2009,-15.0,-31.0,-37.0,-35.0,-27.0,-37.0,-46.0,-51.0,-30.0,-34.0,-36.0,-68.0,-73.0,-52.0,-17.0,-29.0,-48.0,-30.0,-45.0,-67.0,-89.0,-87.0,-43.0,-43.0,-7.0,-42.0,-31.0,-49.0,-83.0,-22.0,-35.0,-34.0,-26.0,-14.0,-35.0,-35.0,1.0,-77.0,-1.0,1.0,-3.0,-20.0,7.0,-65.0,-5.0,-2.0,7.0,-4.0,-10.0,-4.0,-22.0,-26.0,-14.0,-21.0,-30.0,8.0,-13.0,17.0,-20.0,2.0,14.0,17.0,2.0,-12.0,0.0
16:15:01.275 12/08/2009,6.0,-7.0,-16.0,-13.0,-1.0,3.0,-25.0,-26.0,-6.0,-9.0,-10.0,-31.0,-22.0,-3.0,1.0,-8.0,-23.0,-3.0,-7.0,-29.0,-45.0,-69.0,-27.0,-25.0,8.0,-27.0,-14.0,-32.0,-71.0,-12.0,-22.0,-16.0,-10.0,1.0,-16.0,-17.0,16.0,-64.0,1.0,17.0,4.0,42.0,14.0,-43.0,10.0,1.0,16.0,4.0,-1.0,6.0,-8.0,-16.0,3.0,-13.0,-23.0,13.0,-12.0,18.0,-9.0,8.0,17.0,20.0,8.0,-6.0,0.0
16:15:01.281 12/08/2009,3.0,-21.0,-27.0,-21.0,-12.0,-4.0,-1.0,-43.0,-20.0,-27.0,-31.0,-44.0,-41.0,-46.0,-16.0,-30.0,-41.0,-24.0,-26.0,-52.0,-63.0,-90.0,-45.0,-40.0,-12.0,-46.0,-30.0,-45.0,-86.0,-31.0,-43.0,-37.0,-31.0,-17.0,-32.0,-34.0,8.0,-72.0,-7.0,13.0,-8.0,22.0,0.0,-62.0,-4.0,-32.0,1.0,-11.0,-15.0,-11.0,-24.0,-33.0,-3.0,-21.0,-43.0,-3.0,-26.0,4.0,-14.0,-4.0,2.0,6.0,-4.0,-19.0,0.0
16:15:01.288 12/08/2009,-17.0,-26.0,-31.0,-26.0,-13.0,-16.0,-35.0,-42.0,-19.0,-26.0,-27.0,-35.0,-28.0,-42.0,-15.0,-23.0,-40.0,-16.0,-15.0,-34.0,-46.0,-83.0,-40.0,-35.0,2.0,-35.0,-21.0,-44.0,-88.0,-13.0,-26.0,-24.0,-19.0,-4.0,-26.0,-26.0,7.0,-88.0,14.0,-8.0,2.0,-18.0,10.0,-56.0,-3.0,-43.0,8.0,-2.0,-6.0,3.0,-15.0,-32.0,-5.0,-16.0,-37.0,3.0,-18.0,12.0,-17.0,-1.0,6.0,10.0,-3.0,-16.0,0.0
16:15:01.294 12/08/2009,12.0,-2.0,-9.0,-13.0,-5.0,-12.0,-6.0,-17.0,1.0,-10.0,-18.0,-39.0,-52.0,-34.0,8.0,-4.0,-24.0,-12.0,-25.0,-71.0,-86.0,-69.0,-26.0,-20.0,13.0,-23.0,-10.0,-31.0,-79.0,0.0,-12.0,-15.0,-14.0,0.0,-21.0,-22.0,24.0,-71.0,20.0,37.0,15.0,38.0,18.0,-57.0,19.0,15.0,19.0,8.0,-4.0,6.0,-16.0,-40.0,-29.0,-39.0,-37.0,9.0,-13.0,10.0,-32.0,-4.0,12.0,13.0,-2.0,-11.0,0.0
16:15:01.300 12/08/2009,13.0,-9.0,-13.0,-17.0,-11.0,-16.0,-8.0,-21.0,-6.0,-12.0,-20.0,-35.0,-54.0,-30.0,-4.0,-14.0,-22.0,-17.0,-23.0,-66.0,-74.0,-73.0,-30.0,-21.0,10.0,-29.0,-11.0,-33.0,-80.0,-11.0,-22.0,-24.0,-14.0,0.0,-20.0,-21.0,26.0,-74.0,13.0,23.0,27.0,17.0,22.0,-68.0,12.0,2.0,17.0,5.0,-4.0,8.0,-10.0,-26.0,-10.0,-18.0,-30.0,12.0,-11.0,20.0,-20.0,3.0,14.0,16.0,3.0,-14.0,0.0
16:15:01.306 12/08/2009,14.0,-5.0,-8.0,-6.0,-1.0,4.0,-1.0,-21.0,1.0,-3.0,-6.0,-13.0,-20.0,-3.0,2.0,-4.0,-16.0,-2.0,1.0,-28.0,-36.0,-67.0,-24.0,-12.0,23.0,-20.0,-2.0,-26.0,-76.0,6.0,-10.0,-13.0,-2.0,10.0,-11.0,-12.0,33.0,-73.0,21.0,15.0,25.0,10.0,25.0,-71.0,19.0,2.0,31.0,19.0,13.0,25.0,11.0,-6.0,10.0,-1.0,-20.0,28.0,5.0,39.0,1.0,18.0,36.0,34.0,23.0,8.0,0.0
16:15:01.313 12/08/2009,13.0,-2.0,-1.0,-2.0,3.0,4.0,-12.0,-19.0,6.0,-3.0,-3.0,-18.0,-24.0,-26.0,11.0,3.0,-21.0,1.0,-5.0,-38.0,-62.0,-70.0,-25.0,-14.0,22.0,-23.0,-5.0,-26.0,-81.0,7.0,-12.0,-13.0,-7.0,5.0,-16.0,-17.0,26.0,-81.0,17.0,20.0,17.0,24.0,11.0,-80.0,19.0,-11.0,24.0,14.0,6.0,18.0,3.0,-24.0,-7.0,-22.0,-40.0,18.0,-5.0,27.0,-17.0,2.0,24.0,18.0,9.0,-10.0,0.0
16:15:01.319 12/08/2009,7.0,-8.0,-5.0,-6.0,-1.0,-7.0,-21.0,-24.0,-1.0,-4.0,-7.0,-21.0,-30.0,-24.0,5.0,2.0,-21.0,-1.0,-8.0,-41.0,-64.0,-73.0,-24.0,-13.0,22.0,-21.0,2.0,-22.0,-80.0,1.0,-5.0,-5.0,3.0,15.0,-5.0,-6.0,34.0,-79.0,16.0,17.0,13.0,6.0,10.0,-87.0,7.0,0.0,23.0,18.0,21.0,32.0,17.0,-3.0,14.0,1.0,-22.0,24.0,5.0,42.0,-1.0,17.0,31.0,31.0,20.0,-2.0,0.0
16:15:01.325 12/08/2009,28.0,25.0,24.0,20.0,26.0,20.0,1.0,8.0,27.0,25.0,17.0,3.0,-2.0,2.0,18.0,21.0,0.0,24.0,7.0,-20.0,-42.0,-60.0,-17.0,1.0,27.0,-11.0,14.0,-9.0,-70.0,-1.0,-1.0,1.0,11.0,23.0,5.0,2.0,44.0,-66.0,18.0,27.0,31.0,15.0,21.0,-81.0,33.0,0.0,32.0,20.0,24.0,30.0,18.0,-3.0,13.0,1.0,-22.0,30.0,5.0,40.0,2.0,16.0,34.0,34.0,22.0,3.0,0.0
16:15:01.331 12/08/2009,22.0,-2.0,3.0,4.0,9.0,3.0,-19.0,-26.0,-10.0,-7.0,-6.0,-17.0,-18.0,-29.0,-15.0,-11.0,-23.0,2.0,-15.0,-41.0,-63.0,-76.0,-38.0,-25.0,7.0,-33.0,-11.0,-31.0,-88.0,-15.0,-16.0,-22.0,-16.0,-1.0,-21.0,-23.0,23.0,-84.0,4.0,17.0,15.0,4.0,-5.0,-90.0,10.0,-11.0,12.0,-5.0,2.0,7.0,-1.0,-24.0,-3.0,-14.0,-36.0,5.0,-14.0,27.0,-12.0,3.0,10.0,15.0,7.0,-15.0,0.0
16:15:01.338 12/08/2009,24.0,-1.0,-5.0,-6.0,-4.0,-9.0,-16.0,-10.0,-1.0,-7.0,-15.0,-22.0,-37.0,-30.0,-5.0,2.0,-13.0,-1.0,-11.0,-45.0,-65.0,-83.0,-36.0,-24.0,9.0,-27.0,-8.0,-27.0,-84.0,-6.0,-8.0,-15.0,-8.0,7.0,-13.0,-13.0,37.0,-74.0,8.0,33.0,6.0,18.0,-7.0,-81.0,6.0,3.0,21.0,13.0,25.0,31.0,18.0,-1.0,15.0,-1.0,-20.0,25.0,10.0,53.0,6.0,18.0,30.0,36.0,24.0,4.0,0.0
16:15:01.344 12/08/2009,22.0,23.0,13.0,7.0,14.0,10.0,1.0,5.0,37.0,20.0,6.0,-4.0,-19.0,-12.0,26.0,39.0,19.0,19.0,6.0,-24.0,-49.0,-74.0,-25.0,-16.0,11.0,-17.0,2.0,-21.0,-80.0,8.0,-2.0,-5.0,1.0,12.0,-6.0,-9.0,42.0,-73.0,-14.0,31.0,8.0,17.0,7.0,-81.0,7.0,3.0,25.0,27.0,31.0,31.0,16.0,-1.0,14.0,-5.0,-23.0,24.0,8.0,45.0,7.0,12.0,26.0,25.0,15.0,-6.0,0.0
16:15:01.350 12/08/2009,24.0,0.0,-8.0,-13.0,-2.0,0.0,-11.0,-29.0,-10.0,-9.0,-12.0,-24.0,-29.0,-22.0,-15.0,-6.0,-6.0,-4.0,-18.0,-38.0,-60.0,-93.0,-43.0,-33.0,-10.0,-40.0,-18.0,-35.0,-91.0,-12.0,-22.0,-31.0,-23.0,-10.0,-25.0,-26.0,29.0,-85.0,26.0,18.0,38.0,10.0,6.0,-89.0,26.0,-5.0,17.0,1.0,7.0,13.0,2.0,-15.0,6.0,-12.0,-32.0,12.0,-5.0,35.0,5.0,8.0,17.0,15.0,5.0,-12.0,0.0
16:15:01.356 12/08/2009,-4.0,-11.0,-13.0,-15.0,-2.0,-1.0,-18.0,1.0,-4.0,-1.0,-9.0,-20.0,-27.0,-21.0,8.0,12.0,6.0,7.0,-7.0,-32.0,-55.0,-80.0,-27.0,-17.0,12.0,-27.0,-3.0,-23.0,-74.0,2.0,-6.0,-15.0,-4.0,10.0,-8.0,-7.0,45.0,-67.0,34.0,44.0,44.0,28.0,0.0,-72.0,44.0,13.0,31.0,21.0,31.0,41.0,30.0,6.0,29.0,10.0,-12.0,31.0,17.0,59.0,25.0,32.0,36.0,33.0,26.0,7.0,0.0
16:15:01.363 12/08/2009,23.0,16.0,11.0,6.0,22.0,20.0,5.0,13.0,21.0,23.0,8.0,-1.0,-9.0,3.0,11.0,22.0,26.0,21.0,10.0,-20.0,-40.0,-61.0,-16.0,-7.0,23.0,-11.0,13.0,-11.0,-62.0,24.0,12.0,3.0,10.0,23.0,8.0,6.0,54.0,-59.0,-1.0,49.0,25.0,27.0,-2.0,-77.0,27.0,13.0,26.0,22.0,29.0,35.0,24.0,0.0,20.0,6.0,-15.0,27.0,12.0,51.0,17.0,24.0,34.0,26.0,20.0,1.0,0.0
16:15:01.369 12/08/2009,35.0,17.0,4.0,0.0,13.0,13.0,-7.0,-7.0,18.0,10.0,-2.0,-17.0,-21.0,-12.0,-6.0,7.0,11.0,1.0,-3.0,-37.0,-52.0,-73.0,-33.0,-21.0,8.0,-23.0,-1.0,-24.0,-73.0,3.0,-5.0,-14.0,-6.0,9.0,-4.0,-6.0,46.0,-67.0,18.0,34.0,44.0,14.0,6.0,-86.0,7.0,2.0,21.0,11.0,16.0,17.0,7.0,-8.0,7.0,0.0,-23.0,16.0,1.0,43.0,4.0,18.0,21.0,18.0,12.0,-7.0,0.0
16:15:01.375 12/08/2009,4.0,-9.0,-4.0,-7.0,10.0,17.0,-6.0,-17.0,-4.0,-1.0,-6.0,-15.0,-15.0,-7.0,-5.0,1.0,1.0,-3.0,-4.0,-32.0,-46.0,-70.0,-27.0,-15.0,12.0,-20.0,5.0,-18.0,-67.0,8.0,-4.0,-8.0,1.0,15.0,2.0,0.0,53.0,-63.0,36.0,44.0,50.0,22.0,11.0,-84.0,50.0,6.0,27.0,10.0,22.0,20.0,5.0,-10.0,10.0,3.0,-21.0,14.0,2.0,39.0,1.0,14.0,17.0,16.0,12.0,-8.0,0.0
16:15:01.381 12/08/2009,21.0,8.0,1.0,-8.0,9.0,13.0,-11.0,-2.0,12.0,5.0,-11.0,-15.0,-21.0,-9.0,6.0,12.0,-8.0,-13.0,-15.0,-41.0,-51.0,-71.0,-31.0,-20.0,10.0,-26.0,-3.0,-29.0,-76.0,12.0,-6.0,-14.0,-7.0,8.0,-7.0,-10.0,41.0,-71.0,16.0,35.0,23.0,13.0,-2.0,-95.0,18.0,-3.0,18.0,10.0,15.0,9.0,-10.0,-20.0,8.0,-6.0,-30.0,10.0,-5.0,30.0,-9.0,4.0,12.0,11.0,4.0,-13.0,0.0
16:15:01.388 12/08/2009,1.0,-3.0,-11.0,-16.0,1.0,7.0,-18.0,-18.0,3.0,-5.0,-15.0,-21.0,-30.0,-10.0,-7.0,3.0,-19.0,-20.0,-15.0,-49.0,-54.0,-77.0,-37.0,-27.0,7.0,-30.0,-7.0,-33.0,-79.0,6.0,-11.0,-20.0,-10.0,8.0,-6.0,-6.0,43.0,-72.0,5.0,41.0,23.0,17.0,12.0,-91.0,10.0,8.0,14.0,6.0,15.0,15.0,-1.0,-7.0,22.0,6.0,-19.0,15.0,5.0,43.0,6.0,18.0,27.0,27.0,18.0,6.0,0.0
16:15:01.394 12/08/2009,15.0,8.0,6.0,-3.0,22.0,26.0,1.0,-6.0,15.0,11.0,4.0,-1.0,-14.0,7.0,7.0,20.0,-3.0,-2.0,6.0,-33.0,-40.0,-55.0,-17.0,-10.0,26.0,-9.0,12.0,-16.0,-63.0,17.0,8.0,-3.0,7.0,23.0,11.0,8.0,52.0,-65.0,20.0,44.0,46.0,14.0,22.0,-89.0,22.0,18.0,32.0,27.0,29.0,29.0,10.0,-5.0,27.0,9.0,-14.0,31.0,16.0,46.0,10.0,21.0,35.0,29.0,23.0,5.0,0.0
16:15:01.400 12/08/2009,21.0,15.0,11.0,-6.0,18.0,24.0,3.0,-3.0,21.0,13.0,3.0,-6.0,-12.0,17.0,9.0,19.0,-1.0,-4.0,4.0,-32.0,-34.0,-71.0,-28.0,-22.0,14.0,-22.0,2.0,-29.0,-76.0,2.0,-4.0,-14.0,-1.0,15.0,3.0,1.0,40.0,-80.0,12.0,24.0,36.0,7.0,11.0,-101.0,16.0,14.0,27.0,22.0,20.0,24.0,7.0,-10.0,31.0,6.0,-13.0,27.0,10.0,49.0,9.0,24.0,32.0,29.0,21.0,4.0,0.0
16:15:01.406 12/08/2009,23.0,22.0,22.0,6.0,26.0,35.0,13.0,17.0,29.0,26.0,17.0,6.0,-2.0,9.0,12.0,25.0,12.0,13.0,20.0,-20.0,-32.0,-57.0,-15.0,-9.0,32.0,-4.0,16.0,-17.0,-64.0,20.0,18.0,6.0,17.0,29.0,11.0,10.0,46.0,-62.0,25.0,47.0,60.0,35.0,19.0,-87.0,29.0,15.0,36.0,30.0,28.0,39.0,17.0,-2.0,37.0,7.0,-10.0,31.0,15.0,56.0,10.0,31.0,38.0,34.0,29.0,11.0,0.0
16:15:01.413 12/08/2009,39.0,27.0,22.0,5.0,18.0,11.0,-25.0,11.0,29.0,24.0,13.0,-6.0,-29.0,-29.0,17.0,29.0,6.0,8.0,6.0,-43.0,-51.0,-68.0,-26.0,-25.0,13.0,-15.0,2.0,-30.0,-75.0,2.0,4.0,-6.0,4.0,14.0,-8.0,-10.0,27.0,-79.0,-11.0,49.0,41.0,25.0,-5.0,-103.0,4.0,1.0,30.0,31.0,23.0,36.0,10.0,-7.0,18.0,-4.0,-21.0,25.0,11.0,46.0,-8.0,20.0,29.0,19.0,16.0,-4.0,0.0
16:15:01.419 12/08/2009,43.0,27.0,10.0,-6.0,8.0,1.0,-26.0,-2.0,27.0,17.0,4.0,-13.0,-33.0,-20.0,8.0,22.0,1.0,1.0,1.0,-46.0,-45.0,-81.0,-33.0,-28.0,1.0,-26.0,-4.0,-34.0,-73.0,-7.0,-7.0,-21.0,-8.0,8.0,-13.0,-14.0,27.0,-76.0,15.0,36.0,43.0,13.0,15.0,-101.0,1.0,-2.0,22.0,16.0,7.0,24.0,4.0,-8.0,16.0,-2.0,-18.0,21.0,3.0,43.0,-13.0,22.0,27.0,18.0,14.0,-1.0,0.0
16:15:01.425 12/08/2009,0.0,0.0,1.0,-2.0,17.0,16.0,-14.0,2.0,6.0,13.0,7.0,-3.0,-20.0,-9.0,20.0,16.0,1.0,6.0,8.0,-33.0,-36.0,-59.0,-17.0,-10.0,20.0,-13.0,10.0,-21.0,-60.0,15.0,3.0,-12.0,2.0,21.0,1.0,-1.0,41.0,-61.0,27.0,44.0,50.0,22.0,27.0,-93.0,43.0,7.0,32.0,18.0,17.0,32.0,7.0,-4.0,25.0,-1.0,-16.0,26.0,8.0,45.0,-8.0,19.0,31.0,23.0,16.0,7.0,0.0
16:15:01.431 12/08/2009,20.0,20.0,10.0,2.0,20.0,15.0,-16.0,7.0,14.0,17.0,10.0,-7.0,-26.0,-18.0,5.0,13.0,-2.0,4.0,6.0,-45.0,-54.0,-62.0,-30.0,-21.0,12.0,-15.0,1.0,-34.0,-70.0,3.0,-5.0,-15.0,-5.0,13.0,-11.0,-13.0,25.0,-76.0,-7.0,29.0,33.0,9.0,2.0,-108.0,17.0,-15.0,13.0,5.0,10.0,22.0,-5.0,-13.0,12.0,-24.0,-39.0,14.0,-5.0,30.0,-22.0,0.0,16.0,10.0,-2.0,-10.0,0.0
16:15:01.438 12/08/2009,9.0,12.0,3.0,-2.0,17.0,14.0,-10.0,-1.0,9.0,13.0,9.0,-4.0,-23.0,-11.0,8.0,13.0,6.0,6.0,11.0,-37.0,-51.0,-64.0,-30.0,-17.0,16.0,-14.0,6.0,-24.0,-60.0,8.0,2.0,-8.0,4.0,22.0,2.0,2.0,42.0,-62.0,17.0,31.0,51.0,3.0,11.0,-98.0,14.0,-3.0,25.0,18.0,24.0,36.0,11.0,3.0,37.0,2.0,-16.0,27.0,10.0,47.0,1.0,19.0,25.0,21.0,13.0,-4.0,0.0
16:15:01.444 12/08/2009,34.0,26.0,23.0,17.0,41.0,43.0,18.0,15.0,21.0,26.0,29.0,16.0,2.0,20.0,20.0,24.0,23.0,17.0,30.0,-13.0,-26.0,-55.0,-23.0,-11.0,20.0,-9.0,11.0,-16.0,-53.0,8.0,7.0,1.0,11.0,25.0,5.0,3.0,42.0,-58.0,5.0,49.0,35.0,-8.0,6.0,-100.0,20.0,6.0,24.0,21.0,27.0,38.0,12.0,1.0,39.0,4.0,-18.0,22.0,8.0,47.0,2.0,12.0,22.0,16.0,12.0,-10.0,0.0
16:15:01.450 12/08/2009,42.0,32.0,18.0,5.0,29.0,23.0,-3.0,13.0,33.0,26.0,22.0,5.0,-8.0,10.0,22.0,30.0,17.0,7.0,25.0,-20.0,-34.0,-67.0,-37.0,-22.0,1.0,-18.0,2.0,-30.0,-64.0,-7.0,-4.0,-4.0,5.0,18.0,-4.0,-5.0,34.0,-72.0,-30.0,47.0,7.0,48.0,-5.0,-111.0,-3.0,5.0,16.0,20.0,29.0,36.0,11.0,0.0,33.0,-4.0,-22.0,22.0,11.0,50.0,3.0,8.0,28.0,22.0,14.0,-7.0,0.0
16:15:01.456 12/08/2009,39.0,37.0,11.0,1.0,26.0,23.0,2.0,25.0,29.0,29.0,17.0,-1.0,-22.0,-24.0,35.0,32.0,21.0,5.0,18.0,-34.0,-67.0,-71.0,-40.0,-21.0,-2.0,-20.0,0.0,-32.0,-57.0,-11.0,-18.0,-14.0,-4.0,12.0,-16.0,-17.0,19.0,-66.0,-1.0,46.0,18.0,49.0,10.0,-80.0,19.0,-1.0,17.0,13.0,17.0,27.0,5.0,-10.0,27.0,-4.0,-22.0,18.0,3.0,41.0,1.0,8.0,21.0,18.0,13.0,-5.0,0.0
16:15:01.463 12/08/2009,-18.0,-7.0,-19.0,-18.0,7.0,-1.0,-58.0,-4.0,-14.0,-4.0,0.0,-15.0,-38.0,-35.0,-15.0,-10.0,-6.0,-12.0,1.0,-45.0,-68.0,-75.0,-52.0,-32.0,-5.0,-27.0,-14.0,-42.0,-63.0,-2.0,-23.0,-28.0,-17.0,1.0,-26.0,-27.0,10.0,-69.0,13.0,35.0,2.0,15.0,-7.0,-89.0,18.0,-5.0,10.0,4.0,6.0,16.0,-4.0,-18.0,24.0,-6.0,-25.0,12.0,-1.0,32.0,-5.0,3.0,17.0,13.0,8.0,-14.0,0.0
16:15:01.469 12/08/2009,20.0,17.0,-3.0,-8.0,15.0,17.0,-21.0,23.0,20.0,17.0,13.0,3.0,-21.0,-16.0,22.0,20.0,8.0,1.0,17.0,-31.0,-48.0,-71.0,-49.0,-30.0,0.0,-14.0,-4.0,-33.0,-59.0,-2.0,-4.0,-6.0,-1.0,19.0,-5.0,-6.0,24.0,-59.0,-3.0,41.0,39.0,26.0,2.0,-93.0,14.0,13.0,30.0,27.0,27.0,36.0,18.0,0.0,41.0,12.0,-5.0,31.0,16.0,54.0,13.0,28.0,34.0,33.0,27.0,2.0,0.0
16:15:01.475 12/08/2009,28.0,24.0,16.0,14.0,37.0,48.0,12.0,1.0,22.0,29.0,26.0,23.0,6.0,11.0,40.0,32.0,26.0,17.0,37.0,-7.0,-27.0,-51.0,-33.0,-15.0,21.0,7.0,13.0,-18.0,-45.0,20.0,12.0,5.0,14.0,34.0,9.0,6.0,34.0,-45.0,35.0,63.0,70.0,42.0,20.0,-83.0,54.0,29.0,38.0,25.0,28.0,44.0,25.0,13.0,44.0,16.0,1.0,34.0,15.0,52.0,17.0,31.0,35.0,33.0,27.0,5.0,0.0
16:15:01.481 12/08/2009,39.0,28.0,19.0,14.0,39.0,37.0,-11.0,16.0,26.0,23.0,22.0,17.0,-4.0,-4.0,26.0,29.0,19.0,13.0,31.0,-14.0,-35.0,-50.0,-36.0,-20.0,14.0,5.0,11.0,-23.0,-50.0,5.0,8.0,11.0,16.0,32.0,4.0,2.0,26.0,-50.0,0.0,50.0,46.0,26.0,10.0,-89.0,32.0,18.0,21.0,12.0,16.0,32.0,15.0,4.0,32.0,3.0,-10.0,22.0,7.0,39.0,11.0,17.0,25.0,22.0,16.0,-6.0,0.0
16:15:01.488 12/08/2009,50.0,33.0,24.0,12.0,42.0,37.0,-11.0,10.0,24.0,23.0,25.0,26.0,-3.0,-8.0,24.0,27.0,17.0,18.0,32.0,-12.0,-31.0,-54.0,-34.0,-17.0,10.0,7.0,14.0,-19.0,-45.0,7.0,12.0,8.0,18.0,34.0,9.0,7.0,31.0,-42.0,40.0,49.0,56.0,32.0,28.0,-83.0,21.0,24.0,42.0,37.0,34.0,45.0,30.0,7.0,40.0,14.0,1.0,45.0,27.0,50.0,27.0,28.0,42.0,38.0,30.0,11.0,0.0
16:15:01.494 12/08/2009,12.0,22.0,26.0,18.0,50.0,48.0,4.0,38.0,29.0,31.0,36.0,36.0,7.0,5.0,41.0,34.0,26.0,32.0,34.0,-7.0,-24.0,-51.0,-31.0,-10.0,12.0,11.0,17.0,-14.0,-41.0,7.0,7.0,8.0,20.0,36.0,14.0,11.0,34.0,-42.0,32.0,50.0,46.0,34.0,16.0,-81.0,67.0,26.0,43.0,33.0,33.0,44.0,26.0,1.0,36.0,10.0,0.0,41.0,21.0,48.0,29.0,24.0,38.0,34.0,29.0,5.0,0.0
16:15:01.500 12/08/2009,41.0,38.0,26.0,13.0,44.0,45.0,5.0,36.0,35.0,30.0,30.0,22.0,3.0,7.0,18.0,24.0,18.0,22.0,21.0,-14.0,-22.0,-70.0,-45.0,-22.0,-12.0,-5.0,3.0,-27.0,-56.0,-25.0,-11.0,6.0,11.0,30.0,5.0,3.0,23.0,-60.0,-37.0,33.0,10.0,23.0,-10.0,-88.0,30.0,16.0,28.0,16.0,26.0,35.0,16.0,-4.0,35.0,6.0,-4.0,29.0,14.0,46.0,27.0,24.0,33.0,31.0,24.0,1.0,0.0
16:15:01.506 12/08/2009,36.0,30.0,24.0,10.0,45.0,48.0,-4.0,16.0,20.0,25.0,25.0,23.0,4.0,11.0,27.0,27.0,20.0,17.0,26.0,-10.0,-14.0,-57.0,-31.0,-7.0,8.0,8.0,13.0,-15.0,-45.0,4.0,8.0,7.0,14.0,35.0,14.0,13.0,37.0,-27.0,42.0,63.0,60.0,42.0,29.0,-74.0,16.0,26.0,40.0,36.0,40.0,42.0,28.0,13.0,51.0,22.0,10.0,40.0,24.0,51.0,41.0,38.0,43.0,43.0,35.0,14.0,0.0
16:15:01.513 12/08/2009,15.0,9.0,21.0,14.0,50.0,56.0,2.0,4.0,6.0,23.0,29.0,30.0,19.0,33.0,25.0,26.0,25.0,17.0,34.0,2.0,3.0,-43.0,-20.0,1.0,15.0,15.0,18.0,-7.0,-38.0,7.0,7.0,8.0,15.0,34.0,20.0,17.0,41.0,-20.0,35.0,53.0,63.0,21.0,28.0,-83.0,43.0,30.0,31.0,15.0,29.0,33.0,26.0,20.0,49.0,25.0,15.0,26.0,11.0,39.0,36.0,34.0,34.0,35.0,30.0,5.0,0.0
16:15:01.519 12/08/2009,29.0,27.0,23.0,10.0,41.0,51.0,10.0,6.0,15.0,22.0,17.0,22.0,8.0,13.0,12.0,19.0,15.0,4.0,25.0,-6.0,-10.0,-47.0,-26.0,-4.0,12.0,18.0,17.0,-14.0,-43.0,4.0,16.0,17.0,22.0,35.0,14.0,13.0,37.0,-28.0,12.0,53.0,54.0,54.0,13.0,-81.0,34.0,17.0,32.0,14.0,35.0,33.0,21.0,14.0,27.0,4.0,-1.0,30.0,15.0,37.0,25.0,22.0,34.0,34.0,23.0,4.0,0.0
16:15:01.525 12/08/2009,63.0,51.0,43.0,22.0,50.0,49.0,-6.0,34.0,39.0,44.0,27.0,31.0,1.0,-1.0,52.0,53.0,26.0,17.0,31.0,-10.0,-22.0,-34.0,-13.0,9.0,27.0,33.0,30.0,-6.0,-34.0,25.0,36.0,34.0,38.0,50.0,24.0,22.0,42.0,-23.0,47.0,63.0,62.0,53.0,21.0,-68.0,50.0,26.0,49.0,39.0,60.0,46.0,32.0,24.0,39.0,10.0,6.0,46.0,31.0,47.0,35.0,27.0,49.0,45.0,34.0,21.0,0.0
16:15:01.531 12/08/2009,37.0,36.0,40.0,21.0,49.0,52.0,2.0,25.0,23.0,36.0,20.0,23.0,3.0,12.0,42.0,34.0,20.0,12.0,27.0,-16.0,-23.0,-46.0,-24.0,-4.0,14.0,14.0,13.0,-23.0,-48.0,13.0,15.0,14.0,18.0,32.0,7.0,5.0,26.0,-31.0,38.0,47.0,71.0,60.0,25.0,-80.0,52.0,20.0,47.0,32.0,46.0,34.0,21.0,6.0,29.0,2.0,0.0,43.0,25.0,45.0,23.0,21.0,43.0,37.0,27.0,16.0,0.0
16:15:01.538 12/08/2009,44.0,34.0,33.0,9.0,36.0,39.0,-5.0,35.0,28.0,34.0,11.0,11.0,-7.0,-5.0,47.0,42.0,25.0,12.0,22.0,-18.0,-31.0,-49.0,-26.0,-8.0,13.0,15.0,11.0,-26.0,-50.0,3.0,25.0,22.0,25.0,33.0,6.0,5.0,24.0,-29.0,-18.0,42.0,26.0,57.0,30.0,-75.0,31.0,25.0,52.0,40.0,57.0,45.0,33.0,13.0,39.0,7.0,5.0,50.0,33.0,58.0,32.0,29.0,50.0,45.0,32.0,23.0,0.0
16:15:01.544 12/08/2009,66.0,47.0,38.0,11.0,39.0,44.0,4.0,39.0,39.0,38.0,15.0,12.0,-4.0,4.0,49.0,43.0,18.0,17.0,20.0,-12.0,-25.0,-52.0,-29.0,-13.0,-1.0,2.0,2.0,-31.0,-54.0,-3.0,5.0,-1.0,7.0,19.0,-4.0,-6.0,14.0,-31.0,28.0,37.0,65.0,42.0,34.0,-74.0,42.0,22.0,43.0,24.0,37.0,27.0,17.0,7.0,29.0,-5.0,-5.0,31.0,12.0,37.0,22.0,20.0,30.0,28.0,21.0,5.0,0.0
16:15:01.550 12/08/2009,-8.0,-1.0,6.0,-10.0,18.0,18.0,-35.0,6.0,4.0,14.0,-1.0,-5.0,-23.0,-10.0,28.0,22.0,-6.0,5.0,11.0,-28.0,-34.0,-64.0,-48.0,-27.0,-9.0,-10.0,-12.0,-43.0,-68.0,-2.0,-2.0,-13.0,-2.0,12.0,-11.0,-13.0,8.0,-29.0,31.0,41.0,51.0,43.0,24.0,-81.0,-4.0,17.0,40.0,35.0,45.0,32.0,21.0,18.0,26.0,-2.0,-3.0,35.0,17.0,40.0,26.0,23.0,31.0,30.0,22.0,3.0,0.0
16:15:01.556 12/08/2009,34.0,32.0,25.0,7.0,35.0,32.0,-10.0,35.0,35.0,41.0,16.0,9.0,-6.0,-1.0,63.0,56.0,18.0,24.0,32.0,-10.0,-18.0,-48.0,-35.0,-13.0,2.0,7.0,7.0,-28.0,-52.0,13.0,21.0,16.0,21.0,31.0,8.0,6.0,21.0,-11.0,10.0,47.0,14.0,49.0,4.0,-72.0,59.0,28.0,52.0,38.0,53.0,44.0,38.0,39.0,40.0,8.0,8.0,37.0,24.0,52.0,40.0,34.0,35.0,39.0,32.0,15.0,0.0
16:15:01.563 12/08/2009,77.0,47.0,36.0,15.0,48.0,41.0,-2.0,90.0,39.0,45.0,21.0,7.0,-1.0,6.0,61.0,50.0,16.0,22.0,27.0,-12.0,-18.0,-35.0,-27.0,-10.0,4.0,10.0,11.0,-27.0,-50.0,20.0,23.0,14.0,16.0,26.0,5.0,3.0,13.0,-18.0,30.0,37.0,60.0,41.0,27.0,-77.0,72.0,20.0,41.0,19.0,33.0,27.0,26.0,28.0,25.0,-5.0,-1.0,26.0,10.0,43.0,26.0,25.0,27.0,29.0,22.0,10.0,0.0
16:15:01.569 12/08/2009,33.0,8.0,10.0,-3.0,33.0,28.0,-14.0,-13.0,-8.0,14.0,5.0,-9.0,-12.0,0.0,1.0,7.0,-14.0,5.0,10.0,-26.0,-28.0,-48.0,-38.0,-19.0,-6.0,-3.0,-2.0,-36.0,-60.0,6.0,5.0,-5.0,1.0,16.0,-3.0,-4.0,8.0,-22.0,29.0,40.0,109.0,41.0,44.0,-81.0,36.0,22.0,32.0,9.0,25.0,22.0,24.0,21.0,31.0,-2.0,7.0,32.0,13.0,48.0,30.0,35.0,34.0,37.0,27.0,17.0,0.0
16:15:01.575 12/08/2009,17.0,20.0,16.0,6.0,36.0,36.0,-5.0,1.0,13.0,30.0,14.0,3.0,-1.0,12.0,22.0,35.0,4.0,18.0,18.0,-13.0,-19.0,-43.0,-32.0,-10.0,0.0,4.0,7.0,-24.0,-45.0,18.0,9.0,8.0,12.0,29.0,8.0,6.0,20.0,-6.0,9.0,46.0,39.0,50.0,15.0,-68.0,37.0,37.0,44.0,35.0,49.0,44.0,40.0,33.0,46.0,12.0,17.0,44.0,28.0,51.0,42.0,47.0,43.0,42.0,39.0,22.0,0.0
16:15:01.581 12/08/2009,54.0,52.0,32.0,11.0,40.0,39.0,-6.0,56.0,53.0,49.0,20.0,8.0,-4.0,10.0,61.0,62.0,13.0,15.0,10.0,-17.0,-26.0,-54.0,-47.0,-22.0,-16.0,-5.0,-3.0,-31.0,-55.0,25.0,10.0,4.0,4.0,18.0,-1.0,-3.0,11.0,-16.0,18.0,33.0,46.0,38.0,-2.0,-80.0,11.0,27.0,41.0,34.0,31.0,25.0,20.0,18.0,26.0,0.0,2.0,37.0,15.0,30.0,27.0,29.0,31.0,25.0,22.0,9.0,0.0
16:15:01.588 12/08/2009,16.0,-5.0,2.0,-10.0,29.0,36.0,-8.0,-11.0,-14.0,9.0,7.0,0.0,-10.0,12.0,16.0,15.0,-13.0,0.0,5.0,-23.0,-23.0,-48.0,-42.0,-16.0,-9.0,-3.0,-1.0,-22.0,-40.0,32.0,8.0,-3.0,6.0,23.0,6.0,6.0,21.0,-7.0,78.0,41.0,95.0,38.0,36.0,-71.0,43.0,35.0,50.0,30.0,31.0,29.0,25.0,25.0,30.0,6.0,9.0,51.0,25.0,48.0,38.0,36.0,46.0,45.0,32.0,27.0,0.0
16:15:01.594 12/08/2009,21.0,18.0,21.0,8.0,47.0,44.0,-6.0,24.0,15.0,29.0,22.0,12.0,-4.0,11.0,35.0,39.0,7.0,12.0,13.0,-23.0,-13.0,-38.0,-32.0,-5.0,-9.0,1.0,10.0,-12.0,-31.0,15.0,4.0,4.0,16.0,31.0,14.0,13.0,24.0,-4.0,6.0,41.0,35.0,40.0,26.0,-71.0,59.0,33.0,36.0,15.0,19.0,26.0,21.0,14.0,21.0,-5.0,-1.0,31.0,9.0,43.0,23.0,23.0,29.0,30.0,18.0,7.0,0.0
16:15:01.600 12/08/2009,36.0,34.0,22.0,6.0,42.0,37.0,-12.0,42.0,24.0,29.0,18.0,6.0,-12.0,1.0,11.0,32.0,-1.0,2.0,5.0,-28.0,-14.0,-45.0,-38.0,-10.0,-10.0,1.0,11.0,-14.0,-37.0,14.0,3.0,11.0,22.0,34.0,18.0,17.0,25.0,-5.0,-5.0,37.0,13.0,37.0,-2.0,-76.0,39.0,32.0,33.0,17.0,21.0,32.0,25.0,13.0,26.0,-7.0,1.0,34.0,16.0,44.0,24.0,23.0,30.0,30.0,20.0,9.0,0.0
16:15:01.606 12/08/2009,65.0,56.0,41.0,22.0,60.0,58.0,1.0,49.0,39.0,45.0,35.0,25.0,4.0,20.0,43.0,47.0,13.0,14.0,24.0,-12.0,-3.0,-29.0,-24.0,4.0,6.0,23.0,26.0,-2.0,-24.0,36.0,29.0,31.0,35.0,47.0,30.0,27.0,35.0,5.0,29.0,44.0,69.0,45.0,13.0,-62.0,41.0,45.0,47.0,33.0,34.0,42.0,31.0,22.0,37.0,0.0,10.0,41.0,24.0,52.0,32.0,34.0,41.0,39.0,31.0,21.0,0.0
16:15:01.613 12/08/2009,79.0,58.0,47.0,23.0,60.0,60.0,6.0,50.0,55.0,56.0,40.0,26.0,4.0,16.0,62.0,72.0,26.0,22.0,27.0,-14.0,-9.0,-33.0,-33.0,-5.0,-6.0,18.0,18.0,-11.0,-31.0,10.0,17.0,35.0,33.0,44.0,21.0,18.0,23.0,-14.0,-35.0,26.0,-4.0,39.0,-2.0,-71.0,-2.0,42.0,39.0,38.0,42.0,49.0,33.0,21.0,32.0,-2.0,6.0,35.0,23.0,50.0,26.0,31.0,34.0,34.0,27.0,10.0,0.0
16:15:01.619 12/08/2009,52.0,41.0,41.0,13.0,43.0,44.0,-10.0,20.0,22.0,38.0,26.0,12.0,-7.0,4.0,20.0,38.0,15.0,8.0,18.0,-21.0,-14.0,-38.0,-36.0,-12.0,-1.0,10.0,7.0,-18.0,-34.0,29.0,15.0,7.0,12.0,27.0,7.0,6.0,20.0,-8.0,95.0,38.0,70.0,38.0,21.0,-68.0,26.0,48.0,41.0,31.0,28.0,40.0,37.0,33.0,38.0,8.0,15.0,48.0,34.0,56.0,40.0,40.0,46.0,49.0,39.0,23.0,0.0
16:15:01.625 12/08/2009,8.0,11.0,32.0,18.0,48.0,50.0,-11.0,34.0,11.0,41.0,35.0,26.0,8.0,22.0,44.0,55.0,37.0,24.0,35.0,3.0,6.0,-12.0,-15.0,12.0,26.0,31.0,25.0,1.0,-13.0,59.0,33.0,21.0,29.0,43.0,24.0,24.0,40.0,14.0,122.0,57.0,97.0,59.0,27.0,-52.0,65.0,64.0,68.0,48.0,42.0,51.0,50.0,47.0,54.0,15.0,23.0,63.0,42.0,65.0,52.0,41.0,56.0,56.0,46.0,33.0,0.0
16:15:01.631 12/08/2009,29.0,18.0,32.0,16.0,49.0,49.0,1.0,5.0,0.0,30.0,25.0,16.0,1.0,17.0,20.0,30.0,21.0,13.0,21.0,-3.0,-2.0,-22.0,-25.0,0.0,11.0,19.0,11.0,-12.0,-27.0,40.0,22.0,14.0,18.0,32.0,12.0,10.0,25.0,3.0,59.0,40.0,31.0,50.0,18.0,-58.0,44.0,51.0,51.0,27.0,29.0,40.0,35.0,31.0,42.0,4.0,10.0,46.0,32.0,58.0,41.0,30.0,44.0,46.0,37.0,26.0,0.0
16:15:01.638 12/08/2009,37.0,42.0,45.0,16.0,48.0,42.0,-8.0,59.0,42.0,51.0,27.0,14.0,-4.0,13.0,56.0,69.0,32.0,26.0,31.0,-2.0,2.0,-26.0,-26.0,0.0,13.0,18.0,14.0,-8.0,-28.0,33.0,33.0,26.0,26.0,37.0,15.0,14.0,32.0,11.0,79.0,41.0,50.0,56.0,40.0,-54.0,50.0,55.0,51.0,41.0,42.0,52.0,48.0,48.0,50.0,15.0,17.0,54.0,40.0,67.0,49.0,40.0,51.0,53.0,45.0,35.0,0.0
16:15:01.644 12/08/2009,40.0,36.0,50.0,27.0,59.0,57.0,13.0,16.0,22.0,47.0,32.0,25.0,14.0,37.0,35.0,49.0,32.0,25.0,40.0,6.0,14.0,-12.0,-18.0,12.0,29.0,24.0,21.0,2.0,-13.0,44.0,36.0,24.0,29.0,37.0,21.0,19.0,40.0,21.0,111.0,49.0,119.0,63.0,54.0,-56.0,74.0,53.0,52.0,25.0,23.0,35.0,34.0,40.0,41.0,6.0,7.0,38.0,20.0,51.0,38.0,27.0,31.0,31.0,30.0,14.0,0.0
16:15:01.650 12/08/2009,17.0,11.0,31.0,15.0,45.0,43.0,-1.0,-22.0,4.0,25.0,18.0,12.0,1.0,21.0,6.0,26.0,13.0,2.0,14.0,-15.0,6.0,-32.0,-34.0,-5.0,7.0,5.0,1.0,-16.0,-29.0,13.0,14.0,5.0,10.0,20.0,4.0,2.0,22.0,6.0,53.0,41.0,35.0,53.0,20.0,-62.0,40.0,42.0,32.0,9.0,11.0,18.0,15.0,27.0,23.0,-5.0,-2.0,25.0,9.0,40.0,28.0,17.0,21.0,21.0,18.0,7.0,0.0
16:15:01.656 12/08/2009,29.0,25.0,31.0,7.0,39.0,34.0,-7.0,22.0,18.0,28.0,16.0,8.0,-7.0,12.0,23.0,34.0,9.0,1.0,4.0,-23.0,5.0,-27.0,-32.0,-2.0,16.0,12.0,3.0,-15.0,-23.0,24.0,24.0,10.0,14.0,22.0,2.0,0.0,22.0,10.0,58.0,36.0,36.0,53.0,31.0,-49.0,39.0,48.0,37.0,17.0,17.0,22.0,16.0,28.0,22.0,-1.0,3.0,36.0,14.0,42.0,29.0,22.0,30.0,31.0,24.0,20.0,0.0
16:15:01.663 12/08/2009,14.0,9.0,20.0,-1.0,28.0,26.0,-15.0,-7.0,8.0,15.0,5.0,-4.0,-16.0,8.0,18.0,25.0,-4.0,-12.0,-10.0,-32.0,-2.0,-33.0,-47.0,-13.0,3.0,-2.0,-12.0,-30.0,-41.0,17.0,6.0,-9.0,-4.0,2.0,-16.0,-19.0,3.0,-11.0,42.0,22.0,35.0,29.0,25.0,-63.0,10.0,33.0,27.0,11.0,5.0,9.0,2.0,11.0,5.0,-11.0,-13.0,22.0,1.0,34.0,9.0,7.0,18.0,18.0,10.0,7.0,0.0
16:15:01.669 12/08/2009,6.0,6.0,10.0,-13.0,16.0,15.0,-26.0,4.0,16.0,13.0,1.0,-11.0,-21.0,7.0,11.0,28.0,-1.0,-15.0,-12.0,-35.0,-6.0,-44.0,-59.0,-23.0,-4.0,-6.0,-14.0,-33.0,-50.0,10.0,9.0,3.0,6.0,11.0,-11.0,-11.0,5.0,-8.0,-1.0,22.0,3.0,28.0,3.0,-70.0,21.0,36.0,29.0,8.0,7.0,17.0,11.0,14.0,10.0,-5.0,-5.0,29.0,10.0,47.0,16.0,14.0,26.0,30.0,15.0,17.0,0.0
16:15:01.675 12/08/2009,61.0,44.0,37.0,13.0,41.0,34.0,-4.0,16.0,25.0,27.0,24.0,1.0,-5.0,21.0,17.0,31.0,11.0,-3.0,-4.0,-27.0,-3.0,-27.0,-39.0,-4.0,15.0,12.0,5.0,-12.0,-31.0,31.0,24.0,10.0,17.0,25.0,9.0,6.0,18.0,5.0,67.0,29.0,65.0,54.0,36.0,-60.0,55.0,42.0,36.0,7.0,0.0,10.0,7.0,11.0,6.0,-4.0,-3.0,27.0,3.0,41.0,13.0,16.0,22.0,26.0,18.0,18.0,0.0
16:15:01.681 12/08/2009,17.0,-15.0,13.0,2.0,32.0,25.0,-2.0,-16.0,-23.0,-4.0,7.0,-22.0,-23.0,-6.0,-2.0,5.0,-13.0,-25.0,-29.0,-48.0,-31.0,-39.0,-48.0,-18.0,1.0,-2.0,-10.0,-30.0,-45.0,18.0,6.0,-14.0,-2.0,7.0,-10.0,-12.0,-5.0,-15.0,72.0,14.0,46.0,37.0,22.0,-69.0,14.0,23.0,18.0,-4.0,-9.0,-5.0,-9.0,-6.0,-10.0,-21.0,-17.0,10.0,-13.0,29.0,-4.0,6.0,3.0,8.0,4.0,-1.0,0.0
16:15:01.688 12/08/2009,-11.0,-7.0,10.0,-7.0,23.0,8.0,-41.0,-22.0,-4.0,3.0,5.0,-20.0,-29.0,-14.0,11.0,20.0,1.0,-19.0,-23.0,-39.0,-27.0,-39.0,-43.0,-11.0,1.0,3.0,-5.0,-21.0,-32.0,20.0,7.0,-2.0,11.0,18.0,1.0,0.0,10.0,5.0,41.0,27.0,16.0,45.0,28.0,-57.0,2.0,39.0,28.0,13.0,22.0,22.0,18.0,18.0,18.0,2.0,2.0,33.0,15.0,58.0,15.0,28.0,27.0,30.0,23.0,18.0,0.0
16:15:01.694 12/08/2009,36.0,40.0,46.0,25.0,58.0,49.0,6.0,25.0,41.0,41.0,43.0,17.0,12.0,25.0,35.0,45.0,36.0,13.0,9.0,-4.0,4.0,-16.0,-27.0,7.0,18.0,25.0,16.0,2.0,-14.0,38.0,32.0,26.0,34.0,40.0,24.0,22.0,26.0,19.0,55.0,20.0,32.0,38.0,22.0,-60.0,48.0,46.0,37.0,20.0,29.0,29.0,25.0,21.0,30.0,11.0,9.0,36.0,17.0,53.0,15.0,25.0,26.0,24.0,21.0,13.0,0.0
16:15:01.700 12/08/2009,39.0,30.0,37.0,22.0,52.0,52.0,22.0,35.0,27.0,30.0,34.0,12.0,10.0,36.0,22.0,26.0,23.0,-4.0,1.0,-10.0,1.0,-36.0,-44.0,-11.0,-10.0,1.0,-4.0,-17.0,-31.0,11.0,4.0,3.0,11.0,18.0,3.0,-1.0,8.0,2.0,18.0,29.0,-35.0,43.0,1.0,-74.0,1.0,34.0,18.0,7.0,16.0,13.0,5.0,-5.0,3.0,-14.0,-8.0,21.0,4.0,30.0,-8.0,6.0,11.0,9.0,4.0,-4.0,0.0
16:15:01.706 12/08/2009,-4.0,18.0,18.0,3.0,24.0,13.0,-27.0,22.0,22.0,23.0,12.0,-8.0,-32.0,-17.0,7.0,19.0,4.0,-21.0,-16.0,-38.0,-28.0,-42.0,-51.0,-19.0,-15.0,-5.0,-13.0,-33.0,-45.0,5.0,2.0,-9.0,-2.0,7.0,-12.0,-13.0,-8.0,-14.0,37.0,15.0,50.0,51.0,18.0,-60.0,12.0,33.0,18.0,-7.0,-8.0,-5.0,-6.0,-22.0,-4.0,-21.0,-13.0,12.0,-10.0,13.0,-17.0,1.0,1.0,3.0,1.0,-6.0,0.0
16:15:01.713 12/08/2009,12.0,-16.0,-8.0,-14.0,15.0,8.0,-28.0,-56.0,-41.0,-11.0,-5.0,-25.0,-37.0,-14.0,-41.0,-30.0,-25.0,-38.0,-31.0,-53.0,-41.0,-47.0,-55.0,-26.0,-23.0,-13.0,-20.0,-40.0,-48.0,-10.0,-10.0,-19.0,-10.0,-1.0,-16.0,-17.0,-12.0,-15.0,26.0,11.0,39.0,35.0,1.0,-65.0,8.0,23.0,-3.0,-29.0,-30.0,-23.0,-23.0,-33.0,-17.0,-31.0,-23.0,-14.0,-32.0,-10.0,-29.0,-12.0,-29.0,-20.0,-18.0,-31.0,0.0
16:15:01.719 12/08/2009,18.0,2.0,-3.0,-11.0,20.0,12.0,-20.0,-1.0,-6.0,3.0,1.0,-22.0,-25.0,7.0,-20.0,-10.0,-14.0,-33.0,-28.0,-49.0,-36.0,-53.0,-50.0,-23.0,-24.0,-7.0,-12.0,-29.0,-35.0,-8.0,-2.0,-11.0,3.0,13.0,-3.0,-4.0,2.0,1.0,24.0,27.0,8.0,51.0,-13.0,-61.0,8.0,31.0,-2.0,-21.0,-16.0,-7.0,-4.0,-11.0,-1.0,-12.0,-7.0,-6.0,-17.0,11.0,-12.0,7.0,-13.0,-2.0,-3.0,-15.0,0.0
16:15:01.725 12/08/2009,19.0,9.0,13.0,3.0,35.0,33.0,17.0,-2.0,5.0,17.0,16.0,-2.0,-9.0,18.0,4.0,10.0,-2.0,-19.0,-11.0,-27.0,-14.0,-34.0,-34.0,-6.0,-8.0,7.0,2.0,-14.0,-22.0,18.0,13.0,-3.0,11.0,19.0,6.0,3.0,8.0,5.0,67.0,21.0,46.0,50.0,17.0,-48.0,10.0,34.0,12.0,-6.0,-10.0,1.0,2.0,-10.0,7.0,-10.0,-11.0,3.0,-10.0,13.0,-14.0,5.0,-4.0,2.0,0.0,-12.0,0.0
16:15:01.731 12/08/2009,-4.0,-5.0,-5.0,-15.0,14.0,13.0,-17.0,-49.0,-20.0,-6.0,-6.0,-23.0,-31.0,-5.0,-29.0,-15.0,-27.0,-42.0,-36.0,-45.0,-35.0,-46.0,-48.0,-17.0,-31.0,-15.0,-18.0,-30.0,-35.0,-4.0,-18.0,-25.0,-10.0,-2.0,-17.0,-18.0,-9.0,-7.0,20.0,14.0,4.0,37.0,7.0,-59.0,-5.0,10.0,-12.0,-31.0,-34.0,-23.0,-18.0,-36.0,-16.0,-33.0,-30.0,-14.0,-27.0,2.0,-30.0,-10.0,-17.0,-10.0,-14.0,-27.0,0.0
16:15:01.738 12/08/2009,-29.0,-17.0,-17.0,-27.0,1.0,5.0,-29.0,-33.0,-27.0,-15.0,-10.0,-31.0,-36.0,-12.0,-27.0,-13.0,-26.0,-42.0,-41.0,-44.0,-36.0,-45.0,-42.0,-12.0,-23.0,-10.0,-11.0,-22.0,-29.0,12.0,-4.0,-12.0,3.0,11.0,-5.0,-5.0,6.0,10.0,19.0,23.0,-17.0,45.0,5.0,-48.0,-1.0,21.0,7.0,-10.0,-8.0,5.0,2.0,-15.0,-2.0,-17.0,-12.0,10.0,-3.0,24.0,-8.0,9.0,1.0,11.0,4.0,-10.0,0.0
16:15:01.744 12/08/2009,25.0,27.0,17.0,1.0,28.0,33.0,11.0,15.0,20.0,16.0,16.0,-16.0,-7.0,21.0,10.0,20.0,-4.0,-21.0,-21.0,-20.0,-15.0,-29.0,-30.0,-2.0,-17.0,2.0,0.0,-11.0,-20.0,20.0,6.0,3.0,15.0,21.0,7.0,5.0,14.0,16.0,18.0,19.0,21.0,41.0,6.0,-47.0,7.0,20.0,10.0,-10.0,-12.0,7.0,3.0,-13.0,2.0,-22.0,-16.0,4.0,-11.0,18.0,-8.0,1.0,-6.0,-1.0,-3.0,-15.0,0.0
16:15:01.750 12/08/2009,13.0,-3.0,3.0,-9.0,24.0,27.0,2.0,-54.0,-20.0,-6.0,1.0,-27.0,-14.0,17.0,-17.0,-11.0,-25.0,-34.0,-34.0,-27.0,-29.0,-45.0,-43.0,-16.0,-30.0,-15.0,-16.0,-24.0,-33.0,7.0,-12.0,-18.0,-4.0,3.0,-6.0,-8.0,-2.0,5.0,40.0,16.0,18.0,45.0,5.0,-51.0,-7.0,14.0,-4.0,-24.0,-31.0,-8.0,-7.0,-27.0,-7.0,-25.0,-21.0,-5.0,-21.0,15.0,-11.0,-5.0,-11.0,-5.0,-10.0,-15.0,0.0
16:15:01.756 12/08/2009,-17.0,-5.0,0.0,-13.0,20.0,22.0,-7.0,-22.0,-9.0,4.0,1.0,-23.0,-19.0,11.0,-3.0,1.0,-18.0,-27.0,-23.0,-24.0,-21.0,-39.0,-36.0,-7.0,-10.0,-1.0,-6.0,-18.0,-27.0,27.0,9.0,-1.0,10.0,15.0,4.0,3.0,6.0,9.0,48.0,20.0,27.0,48.0,13.0,-35.0,18.0,28.0,16.0,-3.0,-13.0,11.0,11.0,-8.0,12.0,0.0,-1.0,14.0,-3.0,33.0,3.0,13.0,6.0,14.0,7.0,4.0,0.0
16:15:01.763 12/08/2009,24.0,24.0,18.0,1.0,31.0,31.0,4.0,-12.0,10.0,16.0,11.0,-16.0,-10.0,16.0,-1.0,7.0,-7.0,-26.0,-22.0,-22.0,-9.0,-39.0,-35.0,-8.0,-12.0,1.0,-7.0,-20.0,-29.0,14.0,1.0,-5.0,5.0,11.0,1.0,-2.0,-2.0,-6.0,29.0,16.0,7.0,49.0,9.0,-44.0,-4.0,21.0,4.0,-12.0,-26.0,-4.0,-3.0,-25.0,-4.0,-19.0,-20.0,2.0,-17.0,10.0,-20.0,-7.0,-6.0,-3.0,-7.0,-14.0,0.0
16:15:01.769 12/08/2009,-3.0,2.0,0.0,-16.0,14.0,13.0,-8.0,-33.0,-1.0,2.0,-6.0,-36.0,-30.0,-3.0,-4.0,2.0,-8.0,-42.0,-39.0,-44.0,-27.0,-56.0,-44.0,-16.0,-24.0,-10.0,-15.0,-24.0,-27.0,-5.0,-11.0,-10.0,2.0,7.0,-1.0,-1.0,-1.0,-5.0,-2.0,19.0,-36.0,43.0,-6.0,-45.0,-24.0,15.0,6.0,-5.0,-15.0,7.0,1.0,-25.0,-1.0,-20.0,-18.0,14.0,-5.0,20.0,-15.0,2.0,4.0,5.0,-3.0,-5.0,0.0
16:15:01.775 12/08/2009,22.0,33.0,24.0,4.0,30.0,27.0,-7.0,6.0,35.0,26.0,16.0,-23.0,-14.0,21.0,23.0,30.0,15.0,-21.0,-22.0,-25.0,-12.0,-33.0,-20.0,6.0,1.0,14.0,3.0,-6.0,-7.0,24.0,21.0,8.0,16.0,20.0,12.0,10.0,15.0,13.0,19.0,36.0,-6.0,60.0,5.0,-33.0,37.0,22.0,18.0,-8.0,-22.0,6.0,1.0,-22.0,4.0,-17.0,-15.0,13.0,-11.0,15.0,-10.0,2.0,0.0,-2.0,-5.0,-10.0,0.0
16:15:01.781 12/08/2009,14.0,1.0,2.0,-12.0,16.0,16.0,-12.0,-6.0,-16.0,-6.0,-6.0,-38.0,-26.0,4.0,-25.0,-17.0,-17.0,-37.0,-39.0,-33.0,-26.0,-45.0,-31.0,-11.0,-17.0,-2.0,-16.0,-27.0,-27.0,3.0,-10.0,-12.0,-6.0,1.0,-6.0,-8.0,-5.0,-12.0,26.0,12.0,22.0,44.0,16.0,-41.0,22.0,13.0,5.0,-24.0,-40.0,-9.0,-12.0,-29.0,2.0,-19.0,-16.0,2.0,-20.0,13.0,-8.0,0.0,-2.0,-1.0,-2.0,-4.0,0.0
16:15:01.788 12/08/2009,-2.0,7.0,0.0,-15.0,18.0,17.0,-6.0,-4.0,-4.0,2.0,0.0,-31.0,-17.0,7.0,-7.0,1.0,0.0,-25.0,-23.0,-18.0,-20.0,-40.0,-22.0,1.0,-10.0,7.0,-5.0,-13.0,-14.0,15.0,1.0,2.0,8.0,15.0,12.0,11.0,13.0,7.0,41.0,27.0,35.0,61.0,33.0,-26.0,20.0,27.0,37.0,17.0,-1.0,28.0,24.0,0.0,26.0,5.0,7.0,49.0,26.0,49.0,21.0,23.0,42.0,39.0,29.0,37.0,0.0
16:15:01.794 12/08/2009,46.0,29.0,25.0,11.0,49.0,46.0,26.0,22.0,25.0,33.0,27.0,-4.0,8.0,30.0,51.0,47.0,38.0,2.0,7.0,3.0,-2.0,-20.0,-3.0,18.0,14.0,27.0,11.0,2.0,-2.0,46.0,31.0,19.0,26.0,30.0,27.0,24.0,22.0,18.0,48.0,35.0,50.0,64.0,45.0,-29.0,57.0,29.0,67.0,43.0,16.0,42.0,36.0,2.0,24.0,5.0,8.0,70.0,39.0,53.0,29.0,25.0,62.0,53.0,37.0,60.0,0.0
16:15:01.800 12/08/2009,31.0,20.0,19.0,6.0,46.0,44.0,18.0,3.0,15.0,23.0,21.0,-8.0,0.0,24.0,24.0,30.0,31.0,-7.0,1.0,-10.0,-7.0,-37.0,-16.0,3.0,0.0,12.0,0.0,-9.0,-18.0,28.0,4.0,0.0,13.0,22.0,22.0,20.0,13.0,4.0,60.0,17.0,59.0,50.0,50.0,-42.0,46.0,18.0,64.0,35.0,17.0,35.0,32.0,5.0,27.0,10.0,11.0,76.0,40.0,56.0,35.0,34.0,74.0,66.0,45.0,76.0,0.0
16:15:01.806 12/08/2009,2.0,26.0,26.0,12.0,53.0,51.0,11.0,17.0,28.0,34.0,33.0,4.0,12.0,41.0,35.0,42.0,40.0,3.0,16.0,4.0,9.0,-26.0,-8.0,12.0,16.0,22.0,8.0,0.0,-6.0,43.0,17.0,12.0,23.0,32.0,29.0,27.0,23.0,14.0,67.0,42.0,52.0,63.0,49.0,-31.0,40.0,30.0,74.0,48.0,30.0,41.0,37.0,12.0,43.0,24.0,22.0,81.0,42.0,54.0,41.0,43.0,72.0,61.0,48.0,74.0,0.0
16:15:01.813 12/08/2009,15.0,23.0,22.0,5.0,44.0,40.0,5.0,3.0,17.0,21.0,15.0,-16.0,-5.0,14.0,22.0,28.0,21.0,-20.0,-4.0,-13.0,-12.0,-44.0,-26.0,-10.0,-4.0,1.0,-16.0,-23.0,-26.0,22.0,-8.0,-14.0,-10.0,1.0,1.0,-2.0,-5.0,-20.0,13.0,14.0,4.0,46.0,6.0,-42.0,10.0,5.0,21.0,-8.0,-23.0,-14.0,-6.0,-36.0,2.0,-15.0,-13.0,11.0,-16.0,4.0,2.0,7.0,4.0,0.0,2.0,12.0,0.0
16:15:01.819 12/08/2009,-20.0,-22.0,-24.0,-39.0,2.0,-3.0,-33.0,-46.0,-29.0,-24.0,-32.0,-61.0,-47.0,-28.0,-36.0,-13.0,-24.0,-60.0,-39.0,-44.0,-47.0,-77.0,-51.0,-35.0,-36.0,-29.0,-42.0,-45.0,-47.0,-14.0,-38.0,-37.0,-32.0,-19.0,-17.0,-17.0,-21.0,-36.0,-21.0,-7.0,-34.0,31.0,-10.0,-49.0,-39.0,-5.0,-11.0,-31.0,-35.0,-23.0,-10.0,-43.0,1.0,-18.0,-14.0,-3.0,-22.0,11.0,5.0,10.0,-5.0,1.0,1.0,3.0,0.0
16:15:01.825 12/08/2009,-10.0,1.0,-11.0,-26.0,18.0,16.0,-15.0,-28.0,-4.0,-3.0,-13.0,-35.0,-21.0,4.0,-22.0,2.0,-5.0,-39.0,-18.0,-23.0,-23.0,-62.0,-40.0,-15.0,-29.0,-14.0,-24.0,-25.0,-25.0,-14.0,-23.0,-16.0,-9.0,1.0,5.0,3.0,-1.0,-9.0,-15.0,21.0,-16.0,35.0,-6.0,-35.0,11.0,12.0,1.0,-26.0,-27.0,-6.0,5.0,-24.0,20.0,-6.0,-2.0,-1.0,-16.0,24.0,17.0,17.0,1.0,5.0,7.0,4.0,0.0
16:15:01.831 12/08/2009,-3.0,-8.0,-10.0,-20.0,20.0,18.0,-12.0,-26.0,-16.0,-10.0,-15.0,-25.0,-12.0,17.0,-25.0,-9.0,-2.0,-41.0,-26.0,-24.0,-11.0,-62.0,-49.0,-17.0,-31.0,-19.0,-29.0,-34.0,-34.0,-8.0,-30.0,-30.0,-18.0,-7.0,-3.0,-5.0,-11.0,-21.0,21.0,10.0,-17.0,27.0,-13.0,-46.0,-13.0,-1.0,-4.0,-25.0,-29.0,-7.0,1.0,-28.0,11.0,-12.0,-13.0,-1.0,-16.0,25.0,11.0,6.0,-2.0,-2.0,-3.0,-7.0,0.0
16:15:01.838 12/08/2009,-26.0,-6.0,-5.0,-16.0,18.0,17.0,-7.0,-29.0,-5.0,1.0,-10.0,-21.0,-16.0,3.0,-14.0,9.0,13.0,-30.0,-31.0,-20.0,-11.0,-48.0,-39.0,-1.0,-14.0,0.0,-10.0,-16.0,-23.0,12.0,-5.0,-2.0,6.0,15.0,19.0,18.0,13.0,3.0,11.0,25.0,4.0,41.0,16.0,-37.0,-7.0,5.0,15.0,0.0,-6.0,18.0,27.0,-2.0,33.0,4.0,6.0,24.0,9.0,52.0,36.0,27.0,21.0,22.0,19.0,13.0,0.0
16:15:01.844 12/08/2009,29.0,33.0,30.0,17.0,53.0,58.0,45.0,-15.0,16.0,32.0,25.0,12.0,24.0,42.0,5.0,26.0,39.0,-4.0,-7.0,16.0,21.0,-23.0,-19.0,21.0,7.0,18.0,7.0,4.0,-8.0,28.0,10.0,13.0,16.0,26.0,30.0,26.0,20.0,11.0,36.0,26.0,27.0,49.0,23.0,-37.0,13.0,18.0,14.0,0.0,-12.0,12.0,21.0,-6.0,22.0,-3.0,3.0,14.0,-3.0,34.0,27.0,22.0,10.0,7.0,12.0,-1.0,0.0
16:15:01.850 12/08/2009,-1.0,4.0,3.0,-7.0,27.0,23.0,-11.0,-23.0,-2.0,13.0,-1.0,-22.0,-13.0,12.0,-11.0,6.0,11.0,-31.0,-36.0,-31.0,-24.0,-45.0,-44.0,-3.0,-16.0,-5.0,-17.0,-21.0,-27.0,14.0,-5.0,-7.0,-6.0,4.0,3.0,2.0,-1.0,-2.0,32.0,27.0,1.0,69.0,5.0,-34.0,-15.0,16.0,1.0,-15.0,-23.0,-2.0,3.0,-17.0,7.0,-11.0,-3.0,2.0,-12.0,20.0,20.0,20.0,-1.0,-2.0,3.0,-12.0,0.0
16:15:01.856 12/08/2009,2.0,11.0,3.0,-13.0,23.0,12.0,-22.0,-13.0,11.0,16.0,0.0,-26.0,-22.0,1.0,1.0,18.0,12.0,-32.0,-31.0,-31.0,-21.0,-36.0,-34.0,5.0,-10.0,3.0,-12.0,-18.0,-24.0,25.0,5.0,2.0,2.0,10.0,6.0,4.0,3.0,-4.0,20.0,32.0,6.0,51.0,18.0,-23.0,6.0,12.0,12.0,-4.0,-13.0,9.0,13.0,-4.0,22.0,-1.0,4.0,15.0,1.0,34.0,26.0,29.0,10.0,12.0,12.0,0.0,0.0
16:15:01.863 12/08/2009,18.0,15.0,9.0,-15.0,23.0,14.0,-10.0,-18.0,8.0,14.0,-3.0,-22.0,-14.0,13.0,-14.0,12.0,4.0,-32.0,-25.0,-25.0,-18.0,-31.0,-33.0,-1.0,-7.0,4.0,-15.0,-26.0,-35.0,29.0,8.0,3.0,-2.0,5.0,0.0,-4.0,-8.0,-24.0,10.0,6.0,5.0,31.0,10.0,-35.0,7.0,2.0,11.0,-3.0,-13.0,6.0,7.0,-14.0,18.0,-8.0,-5.0,15.0,-3.0,26.0,10.0,20.0,7.0,6.0,3.0,-6.0,0.0
16:15:01.869 12/08/2009,8.0,9.0,1.0,-24.0,14.0,4.0,-17.0,-26.0,1.0,8.0,-8.0,-29.0,-21.0,4.0,-16.0,8.0,-8.0,-41.0,-29.0,-31.0,-23.0,-41.0,-39.0,-7.0,-13.0,-3.0,-16.0,-27.0,-38.0,20.0,7.0,4.0,1.0,7.0,-1.0,-1.0,-5.0,-17.0,26.0,11.0,8.0,32.0,22.0,-33.0,6.0,3.0,21.0,5.0,-6.0,12.0,11.0,-16.0,16.0,-5.0,-3.0,25.0,6.0,33.0,4.0,18.0,15.0,15.0,3.0,5.0,0.0
16:15:01.875 12/08/2009,24.0,36.0,23.0,3.0,36.0,27.0,8.0,3.0,23.0,30.0,13.0,-7.0,1.0,23.0,7.0,27.0,12.0,-26.0,-13.0,-10.0,-5.0,-10.0,-10.0,24.0,18.0,24.0,13.0,1.0,-12.0,52.0,31.0,30.0,23.0,29.0,21.0,20.0,14.0,4.0,52.0,24.0,16.0,39.0,30.0,-28.0,22.0,7.0,31.0,15.0,0.0,19.0,12.0,-21.0,7.0,-15.0,-10.0,26.0,10.0,30.0,-7.0,7.0,16.0,13.0,1.0,6.0,0.0
16:15:01.881 12/08/2009,18.0,29.0,15.0,2.0,29.0,19.0,-14.0,-8.0,14.0,17.0,-4.0,-20.0,-14.0,2.0,5.0,20.0,5.0,-40.0,-27.0,-29.0,-32.0,-20.0,-25.0,14.0,0.0,5.0,-3.0,-13.0,-25.0,36.0,7.0,7.0,0.0,11.0,2.0,0.0,0.0,-6.0,23.0,20.0,9.0,35.0,23.0,-42.0,16.0,-12.0,22.0,-1.0,-17.0,4.0,-5.0,-31.0,-9.0,-30.0,-23.0,23.0,2.0,17.0,-12.0,3.0,13.0,9.0,-3.0,2.0,0.0
16:15:01.888 12/08/2009,-1.0,13.0,1.0,-13.0,12.0,2.0,-34.0,-23.0,-2.0,5.0,-15.0,-26.0,-23.0,-9.0,-12.0,12.0,4.0,-43.0,-24.0,-28.0,-23.0,-22.0,-25.0,10.0,2.0,3.0,-5.0,-16.0,-30.0,39.0,13.0,12.0,4.0,13.0,1.0,0.0,-3.0,-19.0,29.0,18.0,21.0,34.0,39.0,-32.0,27.0,-1.0,39.0,15.0,7.0,26.0,20.0,1.0,25.0,4.0,8.0,46.0,29.0,44.0,27.0,37.0,37.0,36.0,26.0,25.0,0.0
16:15:01.894 12/08/2009,22.0,43.0,28.0,12.0,38.0,34.0,7.0,5.0,34.0,37.0,11.0,5.0,14.0,35.0,17.0,42.0,34.0,-15.0,11.0,10.0,21.0,-11.0,-10.0,19.0,9.0,12.0,7.0,-3.0,-17.0,35.0,21.0,21.0,12.0,23.0,13.0,11.0,4.0,-12.0,33.0,3.0,25.0,41.0,29.0,-24.0,33.0,11.0,37.0,18.0,12.0,25.0,21.0,3.0,32.0,3.0,11.0,36.0,19.0,39.0,21.0,35.0,25.0,22.0,21.0,14.0,0.0
16:15:01.900 12/08/2009,1.0,5.0,-1.0,-11.0,16.0,15.0,-10.0,-35.0,-5.0,4.0,-18.0,-24.0,-15.0,3.0,-13.0,10.0,4.0,-45.0,-22.0,-32.0,-35.0,-45.0,-37.0,-13.0,-25.0,-23.0,-24.0,-33.0,-45.0,-1.0,-17.0,-12.0,-21.0,-4.0,-18.0,-20.0,-22.0,-23.0,-6.0,1.0,-5.0,45.0,4.0,-27.0,-3.0,-4.0,11.0,-11.0,-12.0,1.0,-3.0,-21.0,11.0,-21.0,-6.0,14.0,-1.0,28.0,1.0,23.0,7.0,6.0,4.0,-1.0,0.0
16:15:01.906 12/08/2009,-5.0,9.0,-5.0,-14.0,9.0,-1.0,-43.0,-29.0,1.0,7.0,-16.0,-13.0,-21.0,-23.0,-10.0,15.0,10.0,-36.0,-18.0,-24.0,-33.0,-35.0,-22.0,3.0,-11.0,-10.0,-7.0,-21.0,-32.0,24.0,2.0,6.0,2.0,16.0,-1.0,-1.0,-5.0,-7.0,11.0,27.0,-5.0,56.0,22.0,-18.0,7.0,13.0,22.0,1.0,2.0,19.0,16.0,-5.0,27.0,-7.0,6.0,27.0,13.0,41.0,8.0,33.0,22.0,21.0,14.0,16.0,0.0
16:15:01.913 12/08/2009,4.0,26.0,17.0,6.0,31.0,22.0,-3.0,-22.0,14.0,26.0,-1.0,5.0,-11.0,13.0,-1.0,24.0,19.0,-25.0,-9.0,-27.0,-27.0,-29.0,-15.0,10.0,-8.0,-4.0,2.0,-11.0,-24.0,28.0,5.0,14.0,12.0,24.0,12.0,10.0,3.0,-4.0,3.0,11.0,-22.0,40.0,13.0,-22.0,8.0,13.0,26.0,7.0,7.0,23.0,20.0,-3.0,27.0,-7.0,5.0,27.0,12.0,34.0,9.0,30.0,22.0,21.0,14.0,12.0,0.0
16:15:01.919 12/08/2009,14.0,35.0,26.0,12.0,39.0,34.0,21.0,-22.0,16.0,30.0,7.0,14.0,1.0,32.0,3.0,23.0,15.0,-21.0,-7.0,-15.0,-12.0,-35.0,-17.0,7.0,-6.0,-4.0,5.0,-10.0,-30.0,30.0,9.0,13.0,14.0,27.0,14.0,13.0,1.0,-11.0,23.0,8.0,4.0,33.0,21.0,-28.0,3.0,14.0,24.0,3.0,10.0,22.0,23.0,4.0,32.0,-3.0,10.0,22.0,13.0,32.0,12.0,38.0,15.0,22.0,17.0,10.0,0.0
16:15:01.925 12/08/2009,10.0,35.0,34.0,18.0,48.0,39.0,16.0,-17.0,25.0,40.0,18.0,27.0,13.0,31.0,22.0,38.0,29.0,-10.0,0.0,4.0,-8.0,-25.0,1.0,22.0,2.0,6.0,16.0,2.0,-14.0,29.0,16.0,22.0,25.0,40.0,26.0,24.0,15.0,1.0,23.0,24.0,3.0,61.0,31.0,-20.0,21.0,21.0,38.0,16.0,20.0,32.0,33.0,11.0,34.0,2.0,10.0,31.0,21.0,35.0,13.0,38.0,19.0,26.0,20.0,14.0,0.0
16:15:01.931 12/08/2009,24.0,36.0,30.0,10.0,39.0,29.0,3.0,0.0,16.0,26.0,4.0,12.0,-10.0,-4.0,2.0,17.0,16.0,-30.0,-17.0,-20.0,-35.0,-42.0,-16.0,6.0,-15.0,-11.0,-4.0,-18.0,-30.0,15.0,-1.0,4.0,4.0,18.0,2.0,0.0,-7.0,-11.0,16.0,5.0,1.0,50.0,17.0,-22.0,11.0,-6.0,21.0,-1.0,0.0,7.0,10.0,-13.0,11.0,-17.0,-10.0,22.0,8.0,21.0,-6.0,20.0,11.0,15.0,6.0,4.0,0.0
16:15:01.938 12/08/2009,-8.0,13.0,10.0,-4.0,24.0,9.0,-23.0,-22.0,1.0,14.0,-4.0,3.0,-19.0,-10.0,1.0,17.0,4.0,-34.0,-13.0,-23.0,-31.0,-48.0,-18.0,6.0,-13.0,-9.0,-1.0,-16.0,-25.0,19.0,-1.0,9.0,12.0,25.0,13.0,12.0,4.0,1.0,27.0,16.0,8.0,52.0,28.0,-11.0,10.0,11.0,41.0,22.0,28.0,29.0,31.0,18.0,39.0,6.0,13.0,53.0,35.0,50.0,17.0,48.0,42.0,44.0,31.0,30.0,0.0
16:15:01.944 12/08/2009,17.0,39.0,34.0,19.0,53.0,42.0,22.0,2.0,26.0,37.0,20.0,25.0,14.0,29.0,17.0,37.0,20.0,-16.0,16.0,7.0,9.0,-34.0,-5.0,16.0,-7.0,2.0,10.0,-6.0,-14.0,20.0,11.0,20.0,20.0,33.0,24.0,21.0,12.0,7.0,22.0,18.0,7.0,42.0,18.0,-16.0,17.0,12.0,34.0,13.0,16.0,20.0,20.0,17.0,40.0,1.0,7.0,31.0,15.0,33.0,6.0,36.0,16.0,21.0,14.0,7.0,0.0
16:15:01.950 12/08/2009,7.0,17.0,13.0,-1.0,37.0,26.0,14.0,-23.0,0.0,8.0,-4.0,3.0,3.0,32.0,-15.0,6.0,-3.0,-39.0,-12.0,-18.0,-19.0,-51.0,-18.0,-2.0,-28.0,-18.0,-8.0,-18.0,-25.0,-4.0,-13.0,-3.0,-2.0,16.0,13.0,11.0,5.0,4.0,10.0,-3.0,-8.0,34.0,12.0,-31.0,-10.0,17.0,14.0,-7.0,-4.0,4.0,3.0,-5.0,25.0,-15.0,2.0,19.0,6.0,25.0,-1.0,31.0,5.0,12.0,5.0,-1.0,0.0
16:15:01.956 12/08/2009,-14.0,16.0,14.0,2.0,39.0,30.0,24.0,-20.0,8.0,15.0,4.0,9.0,3.0,20.0,1.0,20.0,3.0,-28.0,-5.0,-18.0,-22.0,-47.0,-5.0,7.0,-21.0,-8.0,0.0,-11.0,-22.0,7.0,1.0,8.0,10.0,26.0,18.0,16.0,5.0,9.0,22.0,22.0,-11.0,54.0,20.0,-9.0,6.0,15.0,30.0,12.0,17.0,23.0,17.0,5.0,28.0,-6.0,10.0,30.0,20.0,33.0,12.0,40.0,21.0,22.0,18.0,9.0,0.0
16:15:01.963 12/08/2009,6.0,26.0,16.0,1.0,30.0,10.0,-6.0,-10.0,19.0,20.0,-2.0,-8.0,-17.0,-17.0,8.0,23.0,4.0,-33.0,-16.0,-29.0,-33.0,-52.0,-18.0,-6.0,-27.0,-15.0,-13.0,-32.0,-44.0,-3.0,-5.0,-2.0,-6.0,8.0,-3.0,-5.0,-23.0,-18.0,9.0,-8.0,-5.0,27.0,11.0,-26.0,6.0,-13.0,19.0,0.0,6.0,10.0,9.0,2.0,14.0,-17.0,-10.0,18.0,6.0,20.0,-1.0,22.0,11.0,13.0,6.0,-4.0,0.0
16:15:01.969 12/08/2009,0.0,17.0,8.0,-7.0,26.0,15.0,1.0,-15.0,15.0,19.0,1.0,-1.0,8.0,8.0,-1.0,25.0,13.0,-24.0,2.0,2.0,4.0,-50.0,-18.0,-5.0,-17.0,-8.0,-7.0,-30.0,-43.0,4.0,4.0,7.0,5.0,22.0,11.0,10.0,-9.0,-15.0,20.0,-24.0,14.0,20.0,32.0,-39.0,6.0,-4.0,35.0,16.0,23.0,28.0,31.0,17.0,31.0,-3.0,8.0,40.0,27.0,37.0,10.0,31.0,32.0,36.0,18.0,14.0,0.0
16:15:01.975 12/08/2009,21.0,41.0,29.0,14.0,44.0,32.0,13.0,3.0,36.0,35.0,14.0,12.0,6.0,13.0,25.0,48.0,32.0,-8.0,7.0,-16.0,-21.0,-32.0,-1.0,10.0,4.0,10.0,7.0,-20.0,-27.0,31.0,24.0,24.0,21.0,32.0,14.0,11.0,-3.0,1.0,24.0,16.0,9.0,65.0,40.0,-23.0,18.0,9.0,45.0,25.0,25.0,30.0,27.0,7.0,13.0,-18.0,-2.0,41.0,26.0,29.0,-5.0,22.0,29.0,26.0,13.0,10.0,0.0
16:15:01.981 12/08/2009,27.0,41.0,19.0,2.0,24.0,1.0,-30.0,-1.0,31.0,23.0,-3.0,-10.0,-26.0,-20.0,17.0,40.0,18.0,-22.0,-9.0,-41.0,-48.0,-45.0,-18.0,-7.0,-10.0,-5.0,-7.0,-34.0,-41.0,19.0,6.0,11.0,4.0,15.0,-3.0,-4.0,-18.0,-18.0,19.0,3.0,2.0,45.0,21.0,-38.0,3.0,-5.0,27.0,5.0,-4.0,7.0,3.0,-4.0,-1.0,-32.0,-18.0,20.0,2.0,9.0,-20.0,13.0,8.0,7.0,-2.0,-3.0,0.0
16:15:01.988 12/08/2009,2.0,20.0,5.0,-8.0,24.0,13.0,8.0,-18.0,12.0,14.0,-6.0,-3.0,-8.0,7.0,3.0,28.0,11.0,-23.0,0.0,-21.0,-21.0,-36.0,-8.0,9.0,2.0,3.0,8.0,-15.0,-26.0,27.0,17.0,24.0,20.0,33.0,20.0,20.0,5.0,-3.0,38.0,1.0,25.0,35.0,38.0,-31.0,13.0,16.0,29.0,6.0,-1.0,12.0,10.0,17.0,21.0,-6.0,6.0,26.0,7.0,21.0,-2.0,35.0,17.0,18.0,14.0,13.0,0.0
16:15:01.994 12/08/2009,21.0,40.0,23.0,8.0,40.0,31.0,11.0,-3.0,27.0,26.0,1.0,8.0,3.0,14.0,9.0,33.0,11.0,-17.0,4.0,-17.0,-14.0,-17.0,1.0,19.0,10.0,11.0,16.0,-8.0,-22.0,36.0,22.0,29.0,23.0,33.0,16.0,13.0,1.0,-1.0,25.0,16.0,14.0,62.0,31.0,-25.0,13.0,8.0,21.0,-2.0,-13.0,2.0,-4.0,-7.0,-1.0,-23.0,-8.0,12.0,-4.0,5.0,-18.0,23.0,1.0,2.0,1.0,-3.0,0.0
16:15:02.000 12/08/2009,22.0,22.0,7.0,-13.0,11.0,-4.0,-27.0,-21.0,5.0,5.0,-20.0,-23.0,-34.0,-41.0,-11.0,10.0,-18.0,-40.0,-23.0,-42.0,-29.0,-34.0,-19.0,1.0,0.0,-4.0,-3.0,-29.0,-41.0,31.0,8.0,12.0,7.0,15.0,-4.0,-4.0,-18.0,-21.0,2.0,-10.0,-2.0,10.0,19.0,-29.0,-11.0,-20.0,8.0,-13.0,-27.0,-8.0,-11.0,-18.0,-2.0,-22.0,-14.0,7.0,-8.0,2.0,-16.0,22.0,-3.0,3.0,-2.0,-5.0,12843.0
16:15:02.006 12/08/2009,16.0,20.0,9.0,-10.0,16.0,11.0,-8.0,-14.0,12.0,8.0,-15.0,-7.0,-12.0,3.0,-2.0,21.0,-4.0,-28.0,-8.0,-25.0,-15.0,-20.0,-3.0,19.0,21.0,12.0,12.0,-13.0,-26.0,50.0,23.0,25.0,21.0,31.0,17.0,16.0,1.0,-9.0,25.0,-7.0,16.0,33.0,36.0,-30.0,10.0,15.0,29.0,7.0,-6.0,11.0,5.0,-4.0,5.0,-17.0,-1.0,31.0,11.0,13.0,-7.0,30.0,14.0,15.0,10.0,11.0,12843.0
16:15:02.013 12/08/2009,20.0,24.0,14.0,0.0,23.0,24.0,17.0,-11.0,20.0,12.0,-17.0,-6.0,-15.0,-3.0,1.0,23.0,1.0,-30.0,-14.0,-42.0,-40.0,-23.0,-3.0,19.0,7.0,5.0,9.0,-10.0,-25.0,34.0,11.0,16.0,14.0,24.0,15.0,13.0,4.0,-9.0,15.0,10.0,12.0,46.0,23.0,-29.0,8.0,-1.0,22.0,0.0,-9.0,-1.0,-2.0,-17.0,-2.0,-32.0,-12.0,19.0,0.0,-1.0,-18.0,20.0,5.0,4.0,1.0,-1.0,5140.0
16:15:02.019 12/08/2009,5.0,12.0,2.0,-10.0,13.0,7.0,-13.0,-27.0,10.0,3.0,-18.0,-15.0,-16.0,-29.0,-10.0,11.0,-8.0,-33.0,-17.0,-32.0,-32.0,-30.0,-8.0,14.0,-1.0,4.0,7.0,-10.0,-22.0,29.0,10.0,13.0,16.0,24.0,15.0,14.0,4.0,-9.0,7.0,-4.0,4.0,21.0,21.0,-24.0,-9.0,-8.0,18.0,-2.0,-14.0,-2.0,5.0,-11.0,5.0,-29.0,-11.0,21.0,2.0,6.0,-13.0,22.0,12.0,11.0,3.0,6.0,5140.0
16:15:02.025 12/08/2009,8.0,22.0,11.0,0.0,21.0,16.0,-3.0,-17.0,23.0,15.0,-6.0,-12.0,-16.0,-3.0,-1.0,26.0,2.0,-22.0,-11.0,-34.0,-33.0,-24.0,-10.0,17.0,7.0,12.0,15.0,-2.0,-19.0,36.0,24.0,24.0,28.0,33.0,25.0,23.0,13.0,2.0,17.0,12.0,11.0,40.0,31.0,-14.0,12.0,4.0,33.0,13.0,-3.0,12.0,13.0,4.0,12.0,-21.0,-3.0,29.0,13.0,16.0,-5.0,28.0,17.0,14.0,11.0,8.0,0.0
16:15:02.031 12/08/2009,23.0,29.0,17.0,7.0,26.0,22.0,5.0,-15.0,31.0,20.0,-10.0,-8.0,-7.0,5.0,1.0,29.0,8.0,-23.0,-6.0,-26.0,-24.0,-29.0,-17.0,11.0,1.0,3.0,10.0,-7.0,-27.0,31.0,16.0,15.0,22.0,25.0,19.0,17.0,4.0,-15.0,10.0,4.0,4.0,18.0,18.0,-28.0,3.0,-15.0,18.0,-3.0,-16.0,3.0,2.0,2.0,10.0,-27.0,-13.0,11.0,-3.0,4.0,-16.0,16.0,-2.0,-7.0,-4.0,-12.0,0.0
16:15:02.038 12/08/2009,4.0,13.0,5.0,-3.0,17.0,20.0,19.0,-28.0,20.0,13.0,-21.0,-14.0,-8.0,-10.0,-7.0,24.0,11.0,-27.0,-6.0,-26.0,-32.0,-33.0,-18.0,11.0,-1.0,-2.0,6.0,-8.0,-27.0,32.0,10.0,7.0,20.0,24.0,18.0,18.0,4.0,-20.0,11.0,1.0,5.0,35.0,20.0,-20.0,-1.0,5.0,20.0,-1.0,-18.0,8.0,10.0,11.0,17.0,-20.0,-2.0,17.0,5.0,15.0,-5.0,25.0,7.0,4.0,5.0,2.0,0.0
16:15:02.044 12/08/2009,16.0,23.0,13.0,2.0,26.0,30.0,14.0,-8.0,32.0,26.0,-9.0,-3.0,2.0,10.0,4.0,33.0,25.0,-16.0,4.0,-12.0,-20.0,-20.0,-10.0,23.0,4.0,-1.0,10.0,0.0,-13.0,33.0,11.0,6.0,17.0,25.0,21.0,19.0,16.0,-4.0,12.0,20.0,12.0,43.0,22.0,-15.0,13.0,6.0,24.0,6.0,-17.0,10.0,13.0,13.0,22.0,-13.0,2.0,21.0,8.0,17.0,0.0,27.0,11.0,7.0,6.0,5.0,0.0
16:15:02.050 12/08/2009,8.0,11.0,7.0,-7.0,22.0,30.0,12.0,-22.0,24.0,18.0,-13.0,-10.0,6.0,23.0,-9.0,24.0,19.0,-25.0,3.0,-16.0,-8.0,-34.0,-23.0,13.0,-8.0,-15.0,-2.0,-5.0,-18.0,24.0,1.0,-6.0,9.0,18.0,15.0,13.0,22.0,-7.0,3.0,8.0,4.0,34.0,24.0,-21.0,0.0,2.0,20.0,0.0,-23.0,1.0,5.0,-6.0,6.0,-23.0,-8.0,16.0,2.0,9.0,-17.0,11.0,4.0,-1.0,-8.0,-2.0,0.0
