Time and date,Fc5,Fc3,Fc1,Fcz,Fc2,Fc4,Fc6,C5,C3,C1,Cz,C2,C4,C6,Cp5,Cp3,Cp1,Cpz,Cp2,Cp4,Cp6,Fp1,Fpz,Fp2,Af7,Af3,Afz,Af4,Af8,F7,F5,F3,F1,Fz,F2,F4,F6,F8,Ft7,Ft8,T7,T8,T9,T10,Tp7,Tp8,P7,P5,P3,P1,Pz,P2,P4,P6,P8,Po7,Po3,Poz,Po4,Po8,O1,Oz,O2,Iz,EDF Annotations
16:15:00.000 12/08/2009,12.0,77.0,84.0,-12.0,25.0,58.0,-11.0,-10.0,70.0,47.0,-21.0,159.0,1.0,24.0,61.0,82.0,100.0,72.0,15.0,56.0,-30.0,-346.0,-293.0,-329.0,-242.0,-131.0,-125.0,-155.0,-268.0,-61.0,-49.0,42.0,60.0,10.0,34.0,-11.0,-69.0,-152.0,36.0,-70.0,83.0,-4.0,125.0,89.0,126.0,57.0,88.0,65.0,71.0,112.0,108.0,109.0,78.0,30.0,26.0,121.0,94.0,82.0,97.0,64.0,88.0,80.0,97.0,122.0,12331.0
16:15:00.006 12/08/2009,63.0,102.0,110.0,19.0,60.0,93.0,15.0,42.0,97.0,83.0,-69.0,192.0,25.0,17.0,103.0,123.0,140.0,116.0,63.0,88.0,-22.0,-251.0,-242.0,-298.0,-204.0,-102.0,-102.0,-130.0,-248.0,-28.0,-16.0,60.0,76.0,20.0,48.0,0.0,-52.0,-161.0,45.0,-80.0,80.0,28.0,122.0,88.0,116.0,48.0,83.0,58.0,60.0,95.0,93.0,93.0,59.0,-1.0,-1.0,84.0,50.0,50.0,60.0,23.0,23.0,11.0,44.0,48.0,12331.0
16:15:00.013 12/08/2009,-4.0,36.0,51.0,-40.0,1.0,48.0,-26.0,-46.0,-2.0,6.0,-60.0,134.0,-32.0,-31.0,1.0,31.0,62.0,37.0,-10.0,22.0,-88.0,-309.0,-346.0,-376.0,-266.0,-175.0,-176.0,-211.0,-332.0,-121.0,-91.0,-13.0,-1.0,-52.0,-30.0,-63.0,-91.0,-219.0,-37.0,-141.0,1.0,-12.0,45.0,45.0,64.0,7.0,24.0,11.0,24.0,56.0,66.0,69.0,35.0,-12.0,-12.0,61.0,40.0,42.0,58.0,28.0,50.0,35.0,55.0,90.0,5140.0
16:15:00.019 12/08/2009,-16.0,23.0,65.0,-16.0,31.0,98.0,6.0,-50.0,2.0,40.0,-12.0,187.0,43.0,28.0,36.0,76.0,117.0,101.0,57.0,92.0,-19.0,-268.0,-276.0,-315.0,-214.0,-119.0,-106.0,-130.0,-269.0,-58.0,-31.0,52.0,77.0,26.0,59.0,23.0,-54.0,-110.0,17.0,-50.0,53.0,49.0,100.0,108.0,100.0,67.0,89.0,52.0,81.0,125.0,129.0,134.0,102.0,46.0,40.0,125.0,97.0,96.0,108.0,69.0,96.0,83.0,95.0,111.0,5140.0
16:15:00.025 12/08/2009,6.0,57.0,106.0,26.0,84.0,136.0,43.0,-31.0,26.0,71.0,-27.0,216.0,75.0,45.0,40.0,82.0,127.0,111.0,69.0,100.0,-20.0,-261.0,-265.0,-306.0,-233.0,-117.0,-111.0,-138.0,-268.0,-68.0,-56.0,30.0,52.0,5.0,39.0,6.0,-76.0,-188.0,-7.0,-98.0,27.0,7.0,53.0,50.0,62.0,23.0,55.0,28.0,28.0,56.0,62.0,78.0,54.0,2.0,-16.0,76.0,41.0,27.0,58.0,45.0,48.0,37.0,66.0,81.0,11008.0
16:15:00.031 12/08/2009,-19.0,29.0,62.0,-24.0,22.0,69.0,-33.0,-63.0,6.0,30.0,-17.0,166.0,20.0,-11.0,8.0,46.0,81.0,60.0,19.0,54.0,-69.0,-313.0,-301.0,-322.0,-367.0,-127.0,-129.0,-150.0,-256.0,-91.0,-44.0,44.0,54.0,3.0,34.0,-7.0,-89.0,-170.0,-40.0,-87.0,29.0,19.0,80.0,63.0,95.0,46.0,93.0,87.0,74.0,91.0,88.0,114.0,88.0,36.0,32.0,140.0,94.0,70.0,108.0,85.0,98.0,84.0,112.0,133.0,11008.0
16:15:00.038 12/08/2009,106.0,126.0,131.0,29.0,72.0,118.0,30.0,42.0,111.0,98.0,-30.0,211.0,84.0,60.0,93.0,131.0,157.0,124.0,83.0,128.0,9.0,-312.0,-256.0,-286.0,-212.0,-69.0,-100.0,-114.0,-215.0,-34.0,-8.0,66.0,71.0,10.0,37.0,10.0,-55.0,-147.0,88.0,-77.0,89.0,42.0,126.0,88.0,115.0,56.0,112.0,79.0,82.0,104.0,97.0,117.0,92.0,39.0,23.0,140.0,95.0,65.0,84.0,53.0,80.0,63.0,69.0,86.0,5424.0
16:15:00.044 12/08/2009,-11.0,60.0,57.0,-48.0,1.0,63.0,-17.0,-15.0,64.0,37.0,-87.0,147.0,22.0,1.0,44.0,87.0,108.0,69.0,26.0,71.0,-49.0,-316.0,-319.0,-352.0,-346.0,-202.0,-192.0,-185.0,-310.0,-109.0,-60.0,-5.0,-9.0,-74.0,-48.0,-71.0,-123.0,-201.0,-13.0,-120.0,18.0,-13.0,53.0,29.0,69.0,5.0,52.0,63.0,59.0,87.0,81.0,90.0,63.0,11.0,6.0,83.0,83.0,64.0,83.0,70.0,80.0,91.0,108.0,144.0,5424.0
16:15:00.050 12/08/2009,-1.0,45.0,39.0,-79.0,-23.0,41.0,-48.0,-21.0,65.0,36.0,-45.0,148.0,18.0,-14.0,40.0,93.0,124.0,87.0,39.0,74.0,-53.0,-320.0,-318.0,-360.0,-316.0,-170.0,-176.0,-182.0,-278.0,-75.0,-39.0,29.0,28.0,-31.0,-6.0,-43.0,-96.0,-181.0,48.0,-100.0,78.0,25.0,105.0,64.0,118.0,53.0,119.0,110.0,116.0,157.0,158.0,159.0,125.0,64.0,66.0,152.0,146.0,136.0,129.0,99.0,118.0,93.0,115.0,100.0,12342.0
16:15:00.056 12/08/2009,85.0,138.0,128.0,17.0,68.0,110.0,24.0,71.0,159.0,127.0,-29.0,229.0,78.0,44.0,124.0,173.0,207.0,165.0,108.0,136.0,11.0,-292.0,-243.0,-306.0,-193.0,-90.0,-109.0,-146.0,-252.0,-22.0,14.0,86.0,76.0,13.0,28.0,-21.0,-91.0,-166.0,65.0,-110.0,93.0,36.0,111.0,68.0,112.0,54.0,107.0,99.0,113.0,161.0,157.0,145.0,106.0,34.0,22.0,137.0,118.0,121.0,98.0,65.0,101.0,86.0,97.0,105.0,12342.0
16:15:00.063 12/08/2009,22.0,74.0,67.0,-50.0,-11.0,34.0,-67.0,-10.0,86.0,56.0,-30.0,155.0,-10.0,-36.0,55.0,96.0,133.0,91.0,33.0,52.0,-60.0,-320.0,-322.0,-370.0,-294.0,-174.0,-188.0,-219.0,-313.0,-99.0,-83.0,-7.0,-10.0,-71.0,-49.0,-88.0,-156.0,-230.0,-23.0,-153.0,24.0,-52.0,48.0,25.0,73.0,20.0,61.0,81.0,91.0,126.0,130.0,119.0,80.0,17.0,16.0,118.0,117.0,105.0,96.0,77.0,97.0,71.0,98.0,90.0,12846.0
16:15:00.069 12/08/2009,13.0,69.0,61.0,-58.0,-13.0,45.0,-29.0,-1.0,92.0,61.0,-47.0,168.0,32.0,27.0,73.0,129.0,155.0,115.0,68.0,106.0,-4.0,-272.0,-271.0,-332.0,-209.0,-116.0,-140.0,-165.0,-241.0,-32.0,-8.0,50.0,41.0,-30.0,-5.0,-43.0,-94.0,-153.0,51.0,-102.0,82.0,75.0,118.0,100.0,124.0,97.0,118.0,106.0,133.0,166.0,166.0,171.0,136.0,75.0,66.0,175.0,158.0,148.0,149.0,108.0,146.0,136.0,136.0,156.0,12846.0
16:15:00.075 12/08/2009,52.0,87.0,75.0,-44.0,1.0,63.0,-9.0,23.0,100.0,72.0,-99.0,170.0,59.0,45.0,91.0,131.0,154.0,113.0,69.0,115.0,3.0,-293.0,-297.0,-348.0,-222.0,-147.0,-174.0,-208.0,-286.0,-67.0,-55.0,11.0,-4.0,-74.0,-59.0,-89.0,-143.0,-204.0,3.0,-140.0,34.0,8.0,69.0,48.0,88.0,29.0,79.0,72.0,68.0,86.0,79.0,84.0,58.0,-6.0,-16.0,165.0,108.0,59.0,59.0,35.0,133.0,68.0,72.0,61.0,21524.0
16:15:00.081 12/08/2009,-36.0,15.0,6.0,-114.0,-70.0,-8.0,-74.0,-71.0,3.0,-20.0,-82.0,96.0,-28.0,-41.0,15.0,35.0,55.0,19.0,-16.0,24.0,-90.0,-331.0,-332.0,-380.0,-362.0,-191.0,-207.0,-236.0,-309.0,-122.0,-88.0,-7.0,-19.0,-87.0,-67.0,-97.0,-113.0,-202.0,-23.0,-125.0,2.0,1.0,62.0,50.0,64.0,16.0,60.0,42.0,27.0,59.0,62.0,83.0,54.0,14.0,27.0,67.0,52.0,55.0,78.0,53.0,46.0,67.0,100.0,138.0,21524.0
16:15:00.088 12/08/2009,-1.0,43.0,62.0,-50.0,-11.0,41.0,-16.0,-42.0,33.0,29.0,-107.0,138.0,16.0,15.0,36.0,69.0,99.0,70.0,31.0,78.0,-28.0,-392.0,-301.0,-349.0,-282.0,-107.0,-165.0,-191.0,-280.0,-85.0,-60.0,17.0,20.0,-45.0,-32.0,-78.0,-136.0,-159.0,9.0,-107.0,49.0,90.0,95.0,89.0,95.0,27.0,98.0,65.0,70.0,97.0,89.0,101.0,71.0,31.0,37.0,163.0,110.0,78.0,87.0,74.0,133.0,101.0,88.0,75.0,5168.0
16:15:00.094 12/08/2009,-29.0,3.0,11.0,-99.0,-55.0,6.0,-41.0,-62.0,-2.0,-16.0,-133.0,92.0,-38.0,-1.0,20.0,36.0,61.0,16.0,-26.0,12.0,-87.0,-333.0,-352.0,-397.0,-326.0,-248.0,-250.0,-257.0,-333.0,-142.0,-134.0,-88.0,-74.0,-135.0,-107.0,-139.0,-184.0,-249.0,-65.0,-145.0,-17.0,-67.0,40.0,13.0,41.0,-25.0,24.0,31.0,7.0,20.0,10.0,26.0,2.0,-44.0,-17.0,45.0,32.0,4.0,29.0,44.0,6.0,12.0,64.0,90.0,5168.0
16:15:00.100 12/08/2009,-73.0,-61.0,-48.0,-152.0,-106.0,-44.0,-110.0,-100.0,-49.0,-66.0,-142.0,46.0,-89.0,-88.0,-19.0,7.0,32.0,-11.0,-52.0,-15.0,-119.0,-345.0,-371.0,-420.0,-351.0,-227.0,-241.0,-247.0,-308.0,-129.0,-102.0,-64.0,-53.0,-109.0,-77.0,-115.0,-161.0,-215.0,-32.0,-153.0,-24.0,-15.0,94.0,57.0,72.0,24.0,71.0,56.0,66.0,73.0,64.0,84.0,56.0,-4.0,15.0,114.0,114.0,68.0,73.0,39.0,104.0,82.0,76.0,120.0,0.0
16:15:00.106 12/08/2009,5.0,22.0,32.0,-68.0,-23.0,36.0,-21.0,-5.0,35.0,17.0,-138.0,120.0,2.0,1.0,61.0,85.0,107.0,65.0,20.0,55.0,-48.0,-269.0,-291.0,-344.0,-215.0,-166.0,-185.0,-205.0,-288.0,-84.0,-70.0,-24.0,-16.0,-78.0,-52.0,-82.0,-146.0,-193.0,-7.0,-136.0,-48.0,-25.0,62.0,30.0,48.0,-26.0,36.0,29.0,20.0,41.0,36.0,57.0,28.0,-32.0,-29.0,52.0,42.0,16.0,30.0,19.0,43.0,33.0,34.0,71.0,0.0
16:15:00.113 12/08/2009,-49.0,-22.0,-8.0,-116.0,-72.0,-17.0,-94.0,-93.0,-44.0,-41.0,-105.0,76.0,-47.0,-68.0,-43.0,-12.0,28.0,6.0,-39.0,-5.0,-123.0,-325.0,-360.0,-416.0,-282.0,-213.0,-227.0,-257.0,-341.0,-135.0,-107.0,-58.0,-47.0,-107.0,-81.0,-124.0,-181.0,-259.0,-71.0,-198.0,-30.0,-60.0,15.0,1.0,22.0,-26.0,24.0,11.0,-7.0,22.0,23.0,44.0,17.0,-34.0,-25.0,59.0,24.0,14.0,40.0,30.0,27.0,34.0,71.0,95.0,0.0
16:15:00.119 12/08/2009,-29.0,11.0,33.0,-72.0,-32.0,20.0,-65.0,-73.0,-19.0,3.0,-59.0,129.0,6.0,-21.0,-11.0,25.0,74.0,60.0,22.0,64.0,-42.0,-261.0,-280.0,-347.0,-254.0,-133.0,-148.0,-187.0,-286.0,-72.0,-26.0,39.0,45.0,-25.0,-4.0,-46.0,-114.0,-189.0,-32.0,-140.0,36.0,5.0,64.0,61.0,59.0,49.0,48.0,18.0,33.0,82.0,87.0,107.0,79.0,32.0,25.0,88.0,64.0,58.0,90.0,76.0,70.0,77.0,79.0,95.0,0.0
16:15:00.125 12/08/2009,26.0,74.0,89.0,-22.0,7.0,44.0,-35.0,-50.0,23.0,44.0,-101.0,152.0,27.0,-18.0,12.0,44.0,88.0,69.0,25.0,63.0,-35.0,-264.0,-279.0,-342.0,-324.0,-130.0,-149.0,-192.0,-297.0,-76.0,-24.0,44.0,43.0,-35.0,-21.0,-71.0,-134.0,-210.0,31.0,-201.0,21.0,-34.0,44.0,37.0,37.0,20.0,22.0,2.0,2.0,39.0,37.0,55.0,33.0,-13.0,-4.0,44.0,24.0,1.0,40.0,46.0,12.0,-2.0,48.0,49.0,0.0
16:15:00.131 12/08/2009,-39.0,35.0,49.0,-65.0,-35.0,8.0,-88.0,-89.0,-1.0,1.0,-57.0,115.0,-23.0,-50.0,-25.0,18.0,54.0,18.0,-17.0,20.0,-79.0,-303.0,-339.0,-384.0,-376.0,-156.0,-178.0,-226.0,-320.0,-134.0,-67.0,6.0,13.0,-56.0,-32.0,-87.0,-146.0,-241.0,-32.0,-182.0,6.0,-33.0,36.0,13.0,51.0,10.0,58.0,43.0,39.0,67.0,59.0,82.0,58.0,4.0,2.0,112.0,86.0,54.0,78.0,62.0,97.0,84.0,85.0,103.0,0.0
16:15:00.138 12/08/2009,12.0,77.0,86.0,-12.0,28.0,72.0,-10.0,-7.0,86.0,66.0,-59.0,175.0,56.0,26.0,75.0,116.0,137.0,100.0,69.0,108.0,17.0,-261.0,-262.0,-297.0,-174.0,-100.0,-109.0,-115.0,-271.0,-62.0,-25.0,52.0,70.0,12.0,41.0,-10.0,-71.0,-159.0,37.0,-114.0,79.0,45.0,94.0,77.0,115.0,67.0,131.0,96.0,96.0,125.0,116.0,134.0,107.0,43.0,25.0,172.0,131.0,90.0,98.0,61.0,116.0,90.0,81.0,97.0,0.0
16:15:00.144 12/08/2009,11.0,76.0,87.0,-26.0,18.0,64.0,-12.0,-17.0,77.0,52.0,-44.0,163.0,34.0,16.0,52.0,91.0,112.0,73.0,42.0,81.0,-20.0,-239.0,-307.0,-367.0,-254.0,-181.0,-162.0,-205.0,-292.0,-122.0,-92.0,-5.0,4.0,-52.0,-27.0,-69.0,-122.0,-206.0,-34.0,-161.0,10.0,-21.0,27.0,8.0,54.0,3.0,53.0,71.0,55.0,81.0,80.0,95.0,62.0,-5.0,-22.0,107.0,95.0,65.0,75.0,58.0,95.0,84.0,97.0,109.0,0.0
16:15:00.150 12/08/2009,-20.0,43.0,54.0,-55.0,-10.0,39.0,-48.0,-47.0,60.0,43.0,-8.0,153.0,30.0,-5.0,32.0,88.0,117.0,83.0,51.0,81.0,-34.0,-231.0,-285.0,-314.0,-316.0,-143.0,-133.0,-168.0,-251.0,-101.0,-48.0,32.0,42.0,-10.0,15.0,-27.0,-61.0,-170.0,2.0,-114.0,50.0,19.0,77.0,60.0,97.0,46.0,76.0,76.0,95.0,153.0,158.0,173.0,140.0,70.0,42.0,101.0,116.0,139.0,152.0,110.0,72.0,84.0,131.0,93.0,0.0
16:15:00.156 12/08/2009,43.0,111.0,127.0,21.0,73.0,125.0,31.0,15.0,120.0,120.0,-15.0,233.0,120.0,65.0,87.0,156.0,184.0,163.0,120.0,153.0,35.0,-222.0,-226.0,-275.0,-252.0,-71.0,-92.0,-136.0,-274.0,-67.0,1.0,77.0,73.0,12.0,40.0,4.0,-29.0,-165.0,14.0,-122.0,53.0,23.0,69.0,55.0,72.0,42.0,77.0,59.0,86.0,138.0,145.0,142.0,107.0,41.0,23.0,96.0,92.0,104.0,97.0,74.0,69.0,72.0,91.0,89.0,0.0
16:15:00.163 12/08/2009,-2.0,63.0,79.0,-37.0,8.0,56.0,-35.0,-52.0,65.0,51.0,-18.0,169.0,26.0,-11.0,4.0,78.0,116.0,85.0,36.0,65.0,-58.0,-272.0,-282.0,-335.0,-275.0,-145.0,-157.0,-181.0,-287.0,-118.0,-87.0,4.0,13.0,-50.0,-24.0,-70.0,-136.0,-237.0,-44.0,-153.0,-4.0,19.0,14.0,20.0,45.0,-5.0,46.0,54.0,54.0,106.0,115.0,119.0,90.0,26.0,21.0,84.0,77.0,96.0,96.0,90.0,69.0,74.0,110.0,79.0,0.0
16:15:00.169 12/08/2009,-4.0,66.0,78.0,-36.0,8.0,58.0,-10.0,-33.0,85.0,62.0,-21.0,182.0,62.0,48.0,43.0,111.0,148.0,118.0,77.0,115.0,8.0,-199.0,-248.0,-305.0,-253.0,-130.0,-122.0,-126.0,-206.0,-86.0,-41.0,31.0,37.0,-15.0,23.0,-17.0,-58.0,-154.0,19.0,-90.0,65.0,33.0,80.0,83.0,97.0,81.0,115.0,65.0,86.0,139.0,150.0,160.0,135.0,76.0,78.0,133.0,96.0,118.0,129.0,98.0,88.0,89.0,111.0,108.0,0.0
16:15:00.175 12/08/2009,9.0,73.0,78.0,-28.0,18.0,72.0,-6.0,-23.0,70.0,53.0,-93.0,183.0,65.0,22.0,27.0,89.0,127.0,101.0,63.0,114.0,10.0,-272.0,-267.0,-327.0,-272.0,-101.0,-138.0,-149.0,-268.0,-118.0,-79.0,-3.0,17.0,-46.0,-8.0,-56.0,-107.0,-218.0,-46.0,-156.0,-1.0,-9.0,31.0,52.0,36.0,47.0,41.0,24.0,35.0,73.0,85.0,110.0,92.0,44.0,44.0,84.0,57.0,65.0,100.0,91.0,66.0,82.0,115.0,96.0,0.0
16:15:00.181 12/08/2009,-55.0,5.0,19.0,-81.0,-24.0,23.0,-69.0,-84.0,-2.0,-4.0,-40.0,139.0,15.0,-32.0,-27.0,26.0,63.0,45.0,14.0,58.0,-53.0,-258.0,-319.0,-371.0,-307.0,-200.0,-187.0,-211.0,-301.0,-148.0,-91.0,-30.0,-20.0,-61.0,-29.0,-80.0,-125.0,-228.0,-39.0,-154.0,-6.0,-12.0,40.0,60.0,50.0,46.0,53.0,48.0,39.0,63.0,69.0,94.0,78.0,45.0,47.0,100.0,88.0,52.0,82.0,65.0,79.0,56.0,93.0,106.0,0.0
16:15:00.188 12/08/2009,1.0,64.0,92.0,-5.0,47.0,81.0,-12.0,-8.0,67.0,76.0,-30.0,207.0,80.0,36.0,57.0,111.0,147.0,125.0,94.0,128.0,7.0,-205.0,-233.0,-290.0,-270.0,-97.0,-94.0,-134.0,-222.0,-68.0,-22.0,61.0,79.0,21.0,48.0,-13.0,-67.0,-172.0,44.0,-102.0,84.0,16.0,109.0,84.0,125.0,68.0,147.0,124.0,123.0,141.0,127.0,139.0,116.0,55.0,51.0,187.0,171.0,91.0,100.0,86.0,143.0,114.0,105.0,118.0,0.0
16:15:00.194 12/08/2009,22.0,71.0,81.0,-25.0,31.0,49.0,-35.0,-6.0,55.0,58.0,-26.0,183.0,52.0,-3.0,47.0,89.0,120.0,95.0,50.0,69.0,-62.0,-260.0,-305.0,-359.0,-254.0,-162.0,-171.0,-203.0,-312.0,-134.0,-88.0,-14.0,-10.0,-62.0,-43.0,-95.0,-150.0,-238.0,-84.0,-161.0,-5.0,-28.0,13.0,12.0,61.0,-14.0,96.0,112.0,79.0,91.0,80.0,81.0,44.0,-18.0,-20.0,177.0,140.0,54.0,29.0,26.0,134.0,76.0,64.0,76.0,0.0
16:15:00.200 12/08/2009,-8.0,15.0,27.0,-82.0,-24.0,5.0,-78.0,-50.0,7.0,11.0,-24.0,152.0,27.0,-33.0,8.0,67.0,107.0,80.0,40.0,68.0,-57.0,-240.0,-304.0,-357.0,-294.0,-185.0,-173.0,-202.0,-290.0,-87.0,-58.0,-4.0,-2.0,-51.0,-24.0,-79.0,-126.0,-222.0,34.0,-169.0,44.0,-3.0,70.0,56.0,79.0,24.0,97.0,94.0,103.0,152.0,155.0,161.0,121.0,52.0,31.0,138.0,158.0,151.0,135.0,95.0,171.0,157.0,163.0,171.0,0.0
16:15:00.206 12/08/2009,-5.0,63.0,81.0,-12.0,46.0,64.0,-30.0,-15.0,63.0,78.0,-40.0,205.0,78.0,17.0,91.0,144.0,183.0,158.0,110.0,128.0,-7.0,-220.0,-247.0,-306.0,-261.0,-122.0,-121.0,-154.0,-254.0,-68.0,-18.0,23.0,34.0,-16.0,8.0,-44.0,-93.0,-194.0,14.0,-138.0,27.0,-18.0,47.0,35.0,64.0,11.0,63.0,57.0,66.0,121.0,134.0,129.0,88.0,17.0,-6.0,54.0,67.0,93.0,78.0,53.0,14.0,35.0,84.0,79.0,0.0
16:15:00.213 12/08/2009,-47.0,4.0,17.0,-77.0,-25.0,-3.0,-79.0,-107.0,-33.0,-10.0,-70.0,123.0,-24.0,-54.0,-63.0,-1.0,62.0,41.0,-3.0,18.0,-87.0,-272.0,-308.0,-356.0,-287.0,-195.0,-184.0,-206.0,-318.0,-135.0,-73.0,-36.0,-29.0,-74.0,-44.0,-88.0,-132.0,-258.0,-46.0,-179.0,-42.0,-47.0,3.0,7.0,34.0,-10.0,21.0,26.0,12.0,58.0,76.0,77.0,36.0,-16.0,-17.0,57.0,47.0,58.0,43.0,37.0,56.0,38.0,76.0,67.0,0.0
16:15:00.219 12/08/2009,-20.0,34.0,56.0,-41.0,9.0,22.0,-50.0,-53.0,21.0,39.0,-44.0,150.0,8.0,-18.0,13.0,68.0,117.0,89.0,36.0,56.0,-57.0,-265.0,-252.0,-297.0,-241.0,-89.0,-105.0,-144.0,-261.0,-55.0,-21.0,52.0,63.0,9.0,44.0,-8.0,-60.0,-181.0,44.0,-163.0,69.0,10.0,79.0,71.0,109.0,50.0,106.0,75.0,67.0,116.0,124.0,120.0,83.0,32.0,21.0,128.0,89.0,86.0,72.0,44.0,73.0,67.0,81.0,106.0,0.0
16:15:00.225 12/08/2009,44.0,93.0,101.0,2.0,39.0,47.0,-19.0,7.0,73.0,65.0,-65.0,157.0,14.0,-15.0,50.0,83.0,111.0,76.0,16.0,34.0,-80.0,-234.0,-268.0,-321.0,-259.0,-134.0,-139.0,-180.0,-280.0,-93.0,-48.0,5.0,11.0,-49.0,-23.0,-63.0,-109.0,-207.0,-12.0,-162.0,22.0,-49.0,13.0,15.0,64.0,-31.0,48.0,45.0,8.0,25.0,30.0,20.0,-13.0,-67.0,-69.0,69.0,39.0,-8.0,-19.0,-22.0,17.0,2.0,20.0,38.0,0.0
16:15:00.231 12/08/2009,-39.0,7.0,-5.0,-112.0,-72.0,-39.0,-99.0,-65.0,7.0,-26.0,-94.0,63.0,-67.0,-80.0,-1.0,24.0,43.0,-3.0,-54.0,-31.0,-153.0,-301.0,-352.0,-411.0,-292.0,-224.0,-204.0,-257.0,-378.0,-119.0,-80.0,-45.0,-43.0,-97.0,-56.0,-85.0,-110.0,-265.0,-14.0,-177.0,35.0,-40.0,38.0,16.0,89.0,-16.0,82.0,87.0,28.0,41.0,37.0,44.0,14.0,-23.0,-27.0,99.0,76.0,16.0,34.0,19.0,81.0,65.0,79.0,128.0,0.0
16:15:00.238 12/08/2009,27.0,64.0,55.0,-50.0,3.0,27.0,-25.0,28.0,90.0,46.0,-88.0,135.0,24.0,6.0,82.0,112.0,118.0,73.0,28.0,66.0,-43.0,-212.0,-283.0,-323.0,-216.0,-126.0,-143.0,-160.0,-295.0,-36.0,4.0,36.0,34.0,-20.0,5.0,-31.0,-82.0,-184.0,57.0,-92.0,79.0,98.0,107.0,55.0,137.0,28.0,148.0,115.0,71.0,92.0,73.0,101.0,79.0,32.0,3.0,167.0,108.0,35.0,73.0,43.0,104.0,85.0,89.0,109.0,0.0
16:15:00.244 12/08/2009,31.0,64.0,55.0,-58.0,9.0,43.0,-16.0,20.0,74.0,31.0,-87.0,149.0,31.0,12.0,44.0,73.0,76.0,37.0,-3.0,39.0,-68.0,-263.0,-329.0,-396.0,-309.0,-196.0,-209.0,-229.0,-274.0,-112.0,-77.0,-47.0,-47.0,-99.0,-66.0,-98.0,-146.0,-233.0,-27.0,-168.0,-24.0,-96.0,5.0,6.0,51.0,-8.0,34.0,27.0,-28.0,-7.0,-18.0,25.0,15.0,-25.0,-36.0,56.0,8.0,-34.0,23.0,14.0,37.0,30.0,63.0,85.0,0.0
16:15:00.250 12/08/2009,-22.0,14.0,13.0,-86.0,-25.0,5.0,-67.0,-27.0,41.0,12.0,-56.0,130.0,8.0,-41.0,8.0,62.0,72.0,40.0,11.0,54.0,-59.0,-219.0,-284.0,-336.0,-242.0,-148.0,-155.0,-169.0,-250.0,-53.0,-33.0,7.0,11.0,-36.0,1.0,-42.0,-72.0,-188.0,12.0,-130.0,44.0,10.0,58.0,48.0,102.0,51.0,71.0,59.0,27.0,62.0,52.0,102.0,85.0,32.0,-4.0,102.0,63.0,36.0,80.0,48.0,61.0,59.0,93.0,76.0,0.0
16:15:00.256 12/08/2009,70.0,104.0,102.0,-5.0,44.0,61.0,-11.0,17.0,104.0,80.0,-53.0,177.0,56.0,12.0,43.0,115.0,131.0,93.0,57.0,93.0,-34.0,-194.0,-243.0,-290.0,-232.0,-95.0,-111.0,-147.0,-211.0,-67.0,-2.0,53.0,53.0,0.0,19.0,-25.0,-54.0,-182.0,-8.0,-119.0,41.0,-30.0,45.0,50.0,81.0,15.0,74.0,51.0,34.0,74.0,75.0,93.0,71.0,-3.0,-31.0,76.0,47.0,45.0,45.0,15.0,48.0,29.0,46.0,53.0,0.0
16:15:00.263 12/08/2009,-45.0,41.0,51.0,-54.0,-3.0,12.0,-64.0,-75.0,30.0,21.0,-50.0,131.0,-4.0,-35.0,-15.0,45.0,74.0,40.0,-4.0,23.0,-92.0,-328.0,-326.0,-364.0,-314.0,-156.0,-188.0,-215.0,-312.0,-131.0,-90.0,-42.0,-31.0,-80.0,-56.0,-94.0,-127.0,-243.0,-27.0,-180.0,-25.0,-33.0,-21.0,-1.0,40.0,-23.0,44.0,53.0,24.0,68.0,73.0,72.0,36.0,-39.0,-62.0,90.0,79.0,68.0,38.0,9.0,111.0,83.0,78.0,69.0,0.0
16:15:00.269 12/08/2009,-11.0,37.0,52.0,-62.0,-6.0,11.0,-58.0,-36.0,59.0,45.0,-39.0,146.0,11.0,-21.0,29.0,106.0,135.0,100.0,56.0,72.0,-53.0,-215.0,-257.0,-321.0,-213.0,-166.0,-140.0,-173.0,-250.0,-70.0,-31.0,18.0,31.0,-20.0,7.0,-34.0,-72.0,-181.0,24.0,-97.0,52.0,17.0,70.0,46.0,92.0,51.0,103.0,86.0,96.0,159.0,171.0,163.0,119.0,43.0,30.0,104.0,125.0,143.0,106.0,71.0,89.0,77.0,117.0,94.0,0.0
16:15:00.275 12/08/2009,7.0,79.0,101.0,-18.0,46.0,57.0,-15.0,-20.0,87.0,81.0,-67.0,190.0,63.0,21.0,41.0,117.0,153.0,124.0,82.0,106.0,-34.0,-240.0,-281.0,-346.0,-241.0,-163.0,-157.0,-191.0,-288.0,-111.0,-92.0,-17.0,8.0,-42.0,-24.0,-57.0,-99.0,-210.0,-32.0,-122.0,5.0,-3.0,17.0,9.0,61.0,21.0,70.0,73.0,59.0,107.0,118.0,112.0,77.0,-1.0,-16.0,74.0,97.0,87.0,58.0,44.0,72.0,60.0,93.0,84.0,0.0
16:15:00.281 12/08/2009,-35.0,31.0,54.0,-60.0,11.0,31.0,-36.0,-73.0,23.0,25.0,-5.0,169.0,35.0,-6.0,-8.0,58.0,95.0,76.0,41.0,65.0,-71.0,-202.0,-291.0,-354.0,-208.0,-186.0,-163.0,-194.0,-275.0,-108.0,-81.0,-23.0,1.0,-43.0,-13.0,-41.0,-82.0,-204.0,-61.0,-115.0,12.0,12.0,34.0,13.0,73.0,32.0,92.0,91.0,63.0,109.0,124.0,135.0,99.0,32.0,15.0,120.0,116.0,101.0,88.0,77.0,105.0,74.0,105.0,97.0,0.0
16:15:00.288 12/08/2009,2.0,80.0,111.0,1.0,78.0,98.0,14.0,-15.0,67.0,89.0,-14.0,223.0,109.0,63.0,58.0,116.0,164.0,152.0,116.0,145.0,23.0,-186.0,-247.0,-309.0,-209.0,-94.0,-97.0,-130.0,-241.0,-40.0,-5.0,57.0,79.0,30.0,56.0,14.0,-34.0,-150.0,30.0,-70.0,74.0,59.0,84.0,64.0,133.0,81.0,148.0,121.0,100.0,149.0,166.0,188.0,151.0,81.0,58.0,184.0,146.0,134.0,130.0,101.0,166.0,134.0,139.0,128.0,0.0
16:15:00.294 12/08/2009,9.0,79.0,101.0,-16.0,52.0,79.0,1.0,-30.0,49.0,55.0,-16.0,196.0,87.0,37.0,34.0,81.0,114.0,100.0,69.0,97.0,-22.0,-257.0,-300.0,-356.0,-246.0,-145.0,-168.0,-189.0,-300.0,-116.0,-77.0,-21.0,-4.0,-57.0,-32.0,-61.0,-104.0,-225.0,-44.0,-124.0,-12.0,1.0,-4.0,10.0,51.0,12.0,27.0,26.0,-6.0,39.0,58.0,87.0,64.0,6.0,-12.0,1.0,1.0,20.0,44.0,25.0,13.0,29.0,67.0,63.0,0.0
16:15:00.300 12/08/2009,-37.0,13.0,40.0,-68.0,-3.0,41.0,-33.0,-69.0,6.0,14.0,-22.0,149.0,48.0,21.0,-11.0,50.0,88.0,69.0,40.0,81.0,-26.0,-193.0,-299.0,-346.0,-250.0,-165.0,-148.0,-177.0,-279.0,-83.0,-47.0,-5.0,25.0,-30.0,5.0,-27.0,-62.0,-161.0,-8.0,-85.0,32.0,55.0,45.0,76.0,85.0,87.0,67.0,57.0,41.0,86.0,99.0,137.0,119.0,72.0,65.0,97.0,73.0,69.0,112.0,110.0,87.0,99.0,130.0,135.0,0.0
16:15:00.306 12/08/2009,10.0,62.0,93.0,2.0,61.0,91.0,22.0,-28.0,39.0,59.0,-58.0,195.0,83.0,62.0,27.0,81.0,124.0,100.0,55.0,102.0,-10.0,-252.0,-270.0,-320.0,-311.0,-91.0,-115.0,-157.0,-272.0,-91.0,-36.0,32.0,51.0,-3.0,30.0,-8.0,-30.0,-191.0,-16.0,-95.0,-26.0,40.0,15.0,61.0,29.0,36.0,27.0,12.0,5.0,52.0,55.0,79.0,56.0,-1.0,0.0,36.0,10.0,11.0,21.0,19.0,-18.0,-30.0,5.0,7.0,0.0
16:15:00.313 12/08/2009,-56.0,2.0,50.0,-34.0,21.0,48.0,-26.0,-122.0,-40.0,2.0,-42.0,146.0,22.0,-1.0,-70.0,6.0,61.0,45.0,8.0,33.0,-69.0,-262.0,-320.0,-366.0,-276.0,-188.0,-155.0,-190.0,-297.0,-145.0,-89.0,-19.0,15.0,-28.0,-3.0,-43.0,-99.0,-225.0,-77.0,-130.0,-88.0,-3.0,-50.0,19.0,-12.0,11.0,-20.0,7.0,-3.0,39.0,49.0,67.0,49.0,-7.0,-4.0,17.0,17.0,16.0,27.0,43.0,7.0,8.0,49.0,52.0,0.0
16:15:00.319 12/08/2009,-24.0,67.0,121.0,8.0,54.0,68.0,-27.0,-62.0,41.0,81.0,24.0,201.0,70.0,27.0,-1.0,86.0,142.0,122.0,79.0,97.0,-23.0,-200.0,-269.0,-326.0,-206.0,-111.0,-97.0,-139.0,-238.0,-66.0,-12.0,72.0,98.0,45.0,58.0,6.0,-65.0,-171.0,21.0,-76.0,65.0,18.0,42.0,77.0,97.0,59.0,73.0,76.0,101.0,147.0,142.0,154.0,123.0,48.0,35.0,108.0,129.0,115.0,93.0,64.0,109.0,98.0,87.0,116.0,0.0
16:15:00.325 12/08/2009,42.0,124.0,153.0,33.0,82.0,105.0,13.0,3.0,108.0,116.0,10.0,229.0,93.0,56.0,51.0,129.0,170.0,138.0,87.0,102.0,-23.0,-195.0,-259.0,-304.0,-174.0,-133.0,-120.0,-143.0,-229.0,-82.0,-37.0,18.0,39.0,-12.0,8.0,-32.0,-76.0,-184.0,-16.0,-116.0,18.0,17.0,1.0,27.0,55.0,1.0,22.0,55.0,67.0,88.0,80.0,69.0,45.0,-33.0,-43.0,77.0,111.0,47.0,12.0,7.0,101.0,70.0,56.0,76.0,0.0
16:15:00.331 12/08/2009,-35.0,25.0,44.0,-75.0,-16.0,18.0,-60.0,-82.0,23.0,5.0,-40.0,139.0,25.0,-12.0,-18.0,54.0,89.0,52.0,14.0,39.0,-90.0,-234.0,-319.0,-360.0,-246.0,-181.0,-177.0,-202.0,-281.0,-112.0,-81.0,-27.0,-19.0,-74.0,-44.0,-83.0,-104.0,-223.0,-43.0,-144.0,1.0,45.0,8.0,46.0,55.0,8.0,30.0,61.0,65.0,87.0,86.0,89.0,66.0,-10.0,-23.0,110.0,136.0,78.0,45.0,20.0,125.0,81.0,87.0,79.0,0.0
16:15:00.338 12/08/2009,71.0,80.0,73.0,-42.0,21.0,53.0,-7.0,27.0,100.0,54.0,-60.0,188.0,99.0,72.0,65.0,130.0,158.0,118.0,88.0,120.0,-8.0,-193.0,-237.0,-271.0,-212.0,-65.0,-120.0,-136.0,-255.0,-40.0,12.0,45.0,44.0,-27.0,4.0,-48.0,-79.0,-155.0,36.0,-65.0,76.0,48.0,78.0,73.0,97.0,56.0,71.0,76.0,99.0,127.0,124.0,125.0,104.0,22.0,10.0,172.0,172.0,97.0,61.0,35.0,187.0,124.0,85.0,62.0,0.0
16:15:00.344 12/08/2009,-32.0,28.0,31.0,-76.0,-22.0,2.0,-58.0,-34.0,44.0,-3.0,-82.0,140.0,22.0,-20.0,6.0,67.0,92.0,61.0,19.0,48.0,-85.0,-228.0,-318.0,-376.0,-238.0,-203.0,-204.0,-238.0,-291.0,-113.0,-91.0,-73.0,-64.0,-123.0,-98.0,-144.0,-165.0,-253.0,-42.0,-178.0,-20.0,-52.0,2.0,29.0,7.0,-30.0,-75.0,-59.0,-51.0,-8.0,-8.0,7.0,-15.0,-86.0,-70.0,-110.0,-44.0,-53.0,-55.0,-39.0,-88.0,-67.0,-27.0,8.0,0.0
16:15:00.350 12/08/2009,-68.0,-30.0,-29.0,-139.0,-83.0,-59.0,-116.0,-95.0,-18.0,-52.0,-119.0,87.0,-25.0,-67.0,-74.0,0.0,39.0,12.0,-15.0,4.0,-124.0,-234.0,-317.0,-363.0,-210.0,-173.0,-197.0,-229.0,-285.0,-100.0,-89.0,-55.0,-51.0,-111.0,-77.0,-120.0,-145.0,-214.0,-25.0,-140.0,-11.0,-7.0,24.0,64.0,26.0,-5.0,-11.0,-34.0,-17.0,26.0,25.0,41.0,18.0,-48.0,-27.0,0.0,14.0,-13.0,-18.0,-23.0,24.0,15.0,5.0,37.0,0.0
16:15:00.356 12/08/2009,-42.0,-5.0,1.0,-104.0,-45.0,-30.0,-69.0,-68.0,16.0,-12.0,-149.0,105.0,3.0,-34.0,-33.0,36.0,69.0,42.0,2.0,21.0,-92.0,-251.0,-289.0,-341.0,-220.0,-178.0,-194.0,-211.0,-308.0,-93.0,-98.0,-58.0,-57.0,-116.0,-83.0,-120.0,-133.0,-195.0,-24.0,-146.0,-9.0,-20.0,16.0,44.0,21.0,-37.0,-21.0,-51.0,-49.0,2.0,-4.0,2.0,-23.0,-97.0,-89.0,-34.0,-37.0,-53.0,-69.0,-67.0,-25.0,-29.0,-36.0,17.0,0.0
16:15:00.363 12/08/2009,-84.0,-44.0,-41.0,-162.0,-109.0,-92.0,-125.0,-120.0,-39.0,-67.0,-135.0,38.0,-80.0,-105.0,-95.0,-33.0,2.0,-34.0,-80.0,-62.0,-181.0,-242.0,-335.0,-386.0,-377.0,-252.0,-253.0,-285.0,-352.0,-170.0,-143.0,-103.0,-115.0,-184.0,-149.0,-185.0,-196.0,-265.0,-82.0,-192.0,-59.0,-76.0,-23.0,-12.0,-21.0,-88.0,-65.0,-56.0,-70.0,-20.0,-11.0,-10.0,-36.0,-119.0,-124.0,-39.0,-33.0,-33.0,-55.0,-60.0,-33.0,-36.0,-14.0,8.0,0.0
16:15:00.369 12/08/2009,-67.0,-25.0,-23.0,-146.0,-97.0,-81.0,-124.0,-83.0,-11.0,-25.0,-106.0,76.0,-43.0,-80.0,-43.0,36.0,71.0,43.0,-5.0,13.0,-117.0,-208.0,-274.0,-345.0,-234.0,-178.0,-184.0,-228.0,-316.0,-79.0,-59.0,-15.0,-22.0,-98.0,-71.0,-127.0,-140.0,-231.0,-5.0,-144.0,42.0,-37.0,67.0,47.0,77.0,-9.0,51.0,31.0,26.0,92.0,103.0,102.0,70.0,-23.0,-50.0,65.0,63.0,76.0,37.0,-1.0,68.0,77.0,74.0,122.0,0.0
16:15:00.375 12/08/2009,-27.0,31.0,31.0,-95.0,-55.0,-45.0,-86.0,-57.0,15.0,3.0,-110.0,97.0,-22.0,-43.0,-37.0,34.0,78.0,50.0,-2.0,22.0,-105.0,-246.0,-288.0,-361.0,-172.0,-174.0,-206.0,-256.0,-309.0,-104.0,-106.0,-53.0,-56.0,-134.0,-121.0,-180.0,-195.0,-287.0,-58.0,-195.0,-26.0,-49.0,3.0,-4.0,6.0,-61.0,-16.0,-42.0,-55.0,-6.0,3.0,12.0,-3.0,-89.0,-98.0,-30.0,-37.0,-29.0,-43.0,-64.0,-67.0,-82.0,-29.0,-82.0,0.0
16:15:00.381 12/08/2009,-103.0,-65.0,-60.0,-181.0,-141.0,-122.0,-168.0,-152.0,-86.0,-94.0,-136.0,20.0,-98.0,-106.0,-108.0,-52.0,-9.0,-33.0,-73.0,-44.0,-147.0,-333.0,-350.0,-430.0,-257.0,-215.0,-251.0,-304.0,-397.0,-141.0,-137.0,-88.0,-84.0,-156.0,-142.0,-193.0,-184.0,-291.0,-65.0,-174.0,-32.0,-46.0,6.0,7.0,17.0,-27.0,10.0,17.0,2.0,33.0,42.0,67.0,46.0,-27.0,-21.0,105.0,79.0,65.0,79.0,59.0,119.0,93.0,128.0,84.0,0.0
16:15:00.388 12/08/2009,-44.0,-8.0,6.0,-111.0,-61.0,-41.0,-80.0,-81.0,-19.0,-20.0,-103.0,97.0,-10.0,-24.0,-26.0,28.0,70.0,42.0,5.0,42.0,-58.0,-265.0,-282.0,-362.0,-212.0,-156.0,-192.0,-221.0,-296.0,-69.0,-84.0,-35.0,-31.0,-101.0,-81.0,-131.0,-163.0,-222.0,-21.0,-136.0,10.0,40.0,46.0,51.0,29.0,-5.0,15.0,-22.0,-18.0,32.0,34.0,68.0,57.0,-10.0,-8.0,1.0,11.0,25.0,60.0,37.0,2.0,18.0,78.0,57.0,0.0
16:15:00.394 12/08/2009,-59.0,-31.0,-19.0,-131.0,-79.0,-54.0,-71.0,-102.0,-52.0,-59.0,-152.0,72.0,-25.0,-15.0,-70.0,-21.0,20.0,-11.0,-36.0,5.0,-86.0,-284.0,-331.0,-390.0,-242.0,-212.0,-235.0,-266.0,-359.0,-116.0,-116.0,-93.0,-89.0,-152.0,-130.0,-173.0,-173.0,-261.0,-63.0,-148.0,-43.0,-42.0,-36.0,-10.0,-11.0,-32.0,-16.0,-28.0,-61.0,-22.0,-17.0,17.0,12.0,-48.0,-47.0,-8.0,-31.0,-36.0,8.0,12.0,-12.0,-27.0,36.0,20.0,0.0
16:15:00.400 12/08/2009,-70.0,-52.0,-39.0,-154.0,-94.0,-58.0,-87.0,-115.0,-81.0,-64.0,-94.0,74.0,-23.0,-55.0,-90.0,-26.0,20.0,-6.0,-31.0,5.0,-110.0,-280.0,-324.0,-376.0,-214.0,-180.0,-209.0,-237.0,-295.0,-99.0,-68.0,-32.0,-33.0,-94.0,-67.0,-119.0,-122.0,-209.0,-74.0,-104.0,-31.0,-4.0,26.0,41.0,43.0,27.0,58.0,25.0,13.0,61.0,55.0,91.0,85.0,22.0,11.0,88.0,58.0,42.0,87.0,74.0,80.0,63.0,106.0,83.0,0.0
16:15:00.406 12/08/2009,64.0,69.0,84.0,-33.0,34.0,55.0,11.0,-11.0,24.0,52.0,-43.0,200.0,93.0,48.0,-1.0,74.0,122.0,104.0,74.0,109.0,-18.0,-306.0,-280.0,-331.0,-210.0,-96.0,-150.0,-188.0,-268.0,-48.0,-20.0,26.0,22.0,-37.0,-26.0,-73.0,-93.0,-180.0,24.0,-72.0,-5.0,10.0,31.0,36.0,19.0,11.0,20.0,4.0,-11.0,43.0,45.0,87.0,84.0,17.0,-10.0,21.0,4.0,8.0,63.0,65.0,9.0,9.0,83.0,28.0,0.0
16:15:00.413 12/08/2009,-52.0,5.0,39.0,-78.0,-13.0,10.0,-34.0,-81.0,-33.0,2.0,-33.0,164.0,49.0,2.0,-58.0,13.0,67.0,58.0,40.0,68.0,-61.0,-274.0,-322.0,-376.0,-237.0,-204.0,-202.0,-234.0,-310.0,-89.0,-54.0,-19.0,-21.0,-74.0,-67.0,-112.0,-136.0,-243.0,-21.0,-112.0,-22.0,-15.0,-3.0,4.0,36.0,7.0,31.0,39.0,16.0,60.0,75.0,110.0,91.0,16.0,-13.0,64.0,42.0,43.0,72.0,72.0,31.0,-8.0,71.0,10.0,0.0
16:15:00.419 12/08/2009,6.0,58.0,84.0,-46.0,25.0,41.0,-24.0,-17.0,33.0,58.0,13.0,211.0,92.0,39.0,-3.0,84.0,138.0,126.0,110.0,129.0,-6.0,-251.0,-287.0,-346.0,-200.0,-123.0,-142.0,-182.0,-256.0,-43.0,5.0,60.0,61.0,10.0,17.0,-35.0,-55.0,-159.0,41.0,-51.0,65.0,63.0,83.0,55.0,108.0,85.0,109.0,99.0,111.0,183.0,193.0,218.0,192.0,105.0,61.0,144.0,144.0,164.0,162.0,139.0,127.0,107.0,152.0,111.0,0.0
16:15:00.425 12/08/2009,64.0,124.0,146.0,11.0,79.0,99.0,37.0,22.0,109.0,115.0,-5.0,250.0,131.0,78.0,53.0,141.0,197.0,174.0,147.0,162.0,22.0,-242.0,-275.0,-333.0,-240.0,-149.0,-161.0,-193.0,-275.0,-55.0,-8.0,36.0,23.0,-37.0,-34.0,-67.0,-76.0,-201.0,12.0,-115.0,61.0,11.0,35.0,18.0,84.0,45.0,89.0,93.0,86.0,143.0,152.0,168.0,142.0,53.0,15.0,120.0,119.0,124.0,124.0,119.0,109.0,98.0,151.0,85.0,0.0
16:15:00.431 12/08/2009,13.0,63.0,84.0,-66.0,9.0,35.0,-21.0,-13.0,76.0,60.0,19.0,191.0,72.0,28.0,21.0,106.0,157.0,126.0,102.0,121.0,-22.0,-286.0,-333.0,-378.0,-261.0,-187.0,-183.0,-202.0,-267.0,-89.0,-37.0,5.0,-3.0,-50.0,-30.0,-55.0,-67.0,-161.0,8.0,-95.0,54.0,9.0,35.0,16.0,92.0,55.0,81.0,105.0,95.0,142.0,153.0,168.0,146.0,67.0,39.0,127.0,125.0,115.0,124.0,110.0,115.0,71.0,116.0,91.0,0.0
16:15:00.438 12/08/2009,55.0,90.0,116.0,-17.0,64.0,100.0,52.0,52.0,125.0,108.0,6.0,250.0,143.0,101.0,88.0,167.0,215.0,186.0,165.0,193.0,61.0,-265.0,-271.0,-321.0,-163.0,-139.0,-134.0,-147.0,-239.0,-11.0,-4.0,45.0,44.0,9.0,35.0,18.0,-3.0,-118.0,59.0,-37.0,105.0,103.0,98.0,65.0,121.0,122.0,108.0,99.0,115.0,178.0,175.0,212.0,189.0,111.0,69.0,112.0,124.0,121.0,145.0,112.0,72.0,49.0,115.0,40.0,0.0
16:15:00.444 12/08/2009,55.0,95.0,108.0,-30.0,60.0,89.0,41.0,34.0,109.0,80.0,-14.0,228.0,117.0,78.0,23.0,105.0,159.0,129.0,111.0,131.0,14.0,-308.0,-334.0,-378.0,-220.0,-199.0,-203.0,-210.0,-298.0,-79.0,-70.0,-24.0,-26.0,-73.0,-54.0,-83.0,-106.0,-201.0,-29.0,-98.0,29.0,23.0,7.0,4.0,58.0,35.0,35.0,60.0,32.0,79.0,73.0,111.0,95.0,29.0,-4.0,50.0,64.0,33.0,63.0,64.0,50.0,4.0,79.0,18.0,0.0
16:15:00.450 12/08/2009,-3.0,40.0,51.0,-87.0,7.0,43.0,-12.0,1.0,63.0,34.0,-22.0,181.0,78.0,52.0,22.0,90.0,132.0,98.0,87.0,102.0,-13.0,-308.0,-338.0,-385.0,-197.0,-178.0,-201.0,-222.0,-279.0,-70.0,-51.0,-3.0,-6.0,-51.0,-30.0,-62.0,-93.0,-174.0,26.0,-82.0,80.0,58.0,64.0,46.0,124.0,71.0,111.0,105.0,88.0,137.0,130.0,157.0,133.0,62.0,42.0,149.0,125.0,93.0,109.0,92.0,112.0,83.0,123.0,89.0,0.0
16:15:00.456 12/08/2009,72.0,115.0,130.0,-8.0,71.0,86.0,33.0,76.0,139.0,116.0,-26.0,225.0,116.0,88.0,91.0,157.0,184.0,148.0,113.0,131.0,7.0,-277.0,-282.0,-334.0,-166.0,-122.0,-157.0,-178.0,-244.0,-36.0,-15.0,32.0,29.0,-21.0,-8.0,-54.0,-78.0,-158.0,32.0,-87.0,77.0,42.0,61.0,50.0,106.0,46.0,98.0,85.0,67.0,102.0,83.0,98.0,72.0,8.0,-7.0,131.0,87.0,38.0,36.0,20.0,69.0,32.0,52.0,31.0,0.0
16:15:00.463 12/08/2009,-4.0,53.0,70.0,-74.0,1.0,12.0,-49.0,-27.0,47.0,32.0,-32.0,147.0,34.0,4.0,-19.0,52.0,95.0,58.0,29.0,48.0,-62.0,-352.0,-358.0,-404.0,-308.0,-202.0,-226.0,-248.0,-312.0,-134.0,-95.0,-30.0,-33.0,-80.0,-68.0,-100.0,-109.0,-248.0,-55.0,-137.0,-19.0,-5.0,-9.0,-5.0,34.0,3.0,7.0,20.0,1.0,44.0,39.0,62.0,44.0,-1.0,-15.0,45.0,24.0,4.0,25.0,34.0,21.0,-1.0,62.0,32.0,0.0
16:15:00.469 12/08/2009,-6.0,60.0,97.0,-39.0,35.0,52.0,-12.0,-12.0,57.0,58.0,-6.0,183.0,71.0,43.0,-11.0,70.0,117.0,86.0,65.0,88.0,-13.0,-303.0,-295.0,-351.0,-220.0,-135.0,-146.0,-164.0,-242.0,-58.0,-12.0,55.0,61.0,17.0,32.0,-9.0,-49.0,-149.0,-37.0,-62.0,45.0,69.0,40.0,61.0,75.0,52.0,77.0,38.0,39.0,98.0,90.0,112.0,87.0,32.0,7.0,95.0,64.0,55.0,56.0,43.0,62.0,50.0,65.0,69.0,0.0
16:15:00.475 12/08/2009,71.0,118.0,144.0,18.0,73.0,94.0,41.0,23.0,83.0,79.0,-44.0,206.0,100.0,93.0,21.0,86.0,127.0,108.0,86.0,106.0,-3.0,-378.0,-280.0,-293.0,-210.0,-98.0,-139.0,-143.0,-258.0,-67.0,-39.0,27.0,36.0,-4.0,9.0,-26.0,-70.0,-156.0,28.0,-70.0,41.0,46.0,44.0,4.0,70.0,11.0,69.0,55.0,14.0,62.0,49.0,74.0,42.0,-29.0,-60.0,111.0,48.0,5.0,-6.0,5.0,39.0,-21.0,15.0,-53.0,0.0
16:15:00.481 12/08/2009,-70.0,8.0,54.0,-54.0,4.0,27.0,-29.0,-76.0,-15.0,-10.0,-20.0,142.0,25.0,-2.0,-53.0,-3.0,54.0,31.0,12.0,33.0,-70.0,-271.0,-318.0,-380.0,-238.0,-206.0,-174.0,-195.0,-244.0,-99.0,-73.0,-10.0,4.0,-29.0,0.0,-41.0,-66.0,-171.0,-54.0,-88.0,21.0,2.0,36.0,39.0,64.0,39.0,20.0,-1.0,1.0,62.0,65.0,92.0,67.0,0.0,-22.0,29.0,31.0,52.0,54.0,39.0,40.0,34.0,97.0,90.0,0.0
16:15:00.488 12/08/2009,31.0,89.0,135.0,33.0,96.0,112.0,42.0,27.0,76.0,90.0,-8.0,221.0,107.0,64.0,47.0,103.0,151.0,122.0,96.0,112.0,-1.0,-212.0,-227.0,-276.0,-112.0,-89.0,-89.0,-112.0,-188.0,-5.0,13.0,64.0,81.0,44.0,72.0,25.0,-21.0,-126.0,46.0,-82.0,84.0,27.0,90.0,69.0,105.0,40.0,65.0,34.0,27.0,91.0,81.0,102.0,68.0,-24.0,-47.0,64.0,48.0,37.0,10.0,-31.0,27.0,-5.0,10.0,-10.0,0.0
16:15:00.494 12/08/2009,10.0,62.0,107.0,3.0,56.0,65.0,7.0,-10.0,36.0,45.0,-43.0,179.0,62.0,28.0,-5.0,48.0,93.0,65.0,40.0,55.0,-51.0,-269.0,-278.0,-334.0,-211.0,-158.0,-143.0,-175.0,-275.0,-81.0,-63.0,-11.0,11.0,-34.0,-13.0,-59.0,-88.0,-194.0,-46.0,-117.0,-1.0,-20.0,2.0,6.0,21.0,-14.0,-40.0,-43.0,-58.0,-4.0,-6.0,22.0,3.0,-75.0,-113.0,-65.0,-62.0,-49.0,-48.0,-67.0,-87.0,-86.0,-7.0,-29.0,0.0
16:15:00.500 12/08/2009,-44.0,-7.0,45.0,-56.0,-11.0,-2.0,-50.0,-69.0,-33.0,-15.0,-59.0,128.0,18.0,-12.0,-58.0,5.0,60.0,31.0,13.0,35.0,-60.0,-252.0,-265.0,-320.0,-200.0,-111.0,-121.0,-158.0,-232.0,-45.0,-18.0,41.0,48.0,-5.0,22.0,-23.0,-45.0,-153.0,25.0,-92.0,61.0,36.0,79.0,38.0,95.0,41.0,42.0,24.0,32.0,99.0,94.0,129.0,99.0,16.0,-20.0,45.0,59.0,74.0,79.0,34.0,57.0,56.0,110.0,72.0,0.0
16:15:00.506 12/08/2009,52.0,90.0,138.0,28.0,81.0,98.0,50.0,32.0,67.0,83.0,-25.0,219.0,131.0,91.0,35.0,105.0,159.0,134.0,114.0,135.0,24.0,-234.0,-214.0,-271.0,-182.0,-96.0,-89.0,-118.0,-227.0,-27.0,-1.0,60.0,62.0,7.0,40.0,4.0,-17.0,-122.0,34.0,-72.0,55.0,45.0,77.0,36.0,48.0,31.0,3.0,3.0,4.0,81.0,81.0,106.0,79.0,-19.0,-72.0,-17.0,18.0,35.0,34.0,-14.0,-17.0,-26.0,28.0,-42.0,0.0
16:15:00.513 12/08/2009,-7.0,9.0,50.0,-51.0,4.0,39.0,-14.0,-44.0,-2.0,-4.0,-67.0,146.0,59.0,26.0,-43.0,23.0,72.0,48.0,29.0,56.0,-50.0,-283.0,-278.0,-336.0,-240.0,-168.0,-171.0,-197.0,-252.0,-92.0,-47.0,-16.0,-14.0,-74.0,-45.0,-77.0,-97.0,-205.0,-27.0,-100.0,-9.0,6.0,37.0,-1.0,25.0,-7.0,-35.0,-15.0,-18.0,47.0,49.0,78.0,46.0,-53.0,-96.0,-35.0,-2.0,21.0,18.0,-22.0,-14.0,-29.0,40.0,-32.0,0.0
16:15:00.519 12/08/2009,15.0,34.0,66.0,-54.0,12.0,47.0,6.0,-6.0,55.0,39.0,-44.0,170.0,91.0,58.0,8.0,88.0,135.0,102.0,80.0,106.0,-5.0,-247.0,-226.0,-274.0,-154.0,-98.0,-113.0,-122.0,-181.0,-7.0,-4.0,69.0,56.0,0.0,29.0,-6.0,-14.0,-88.0,70.0,-18.0,79.0,93.0,132.0,74.0,109.0,86.0,60.0,64.0,89.0,150.0,148.0,174.0,139.0,44.0,-2.0,64.0,90.0,109.0,99.0,50.0,67.0,60.0,106.0,63.0,0.0
16:15:00.525 12/08/2009,68.0,110.0,135.0,16.0,80.0,109.0,71.0,44.0,127.0,103.0,-26.0,222.0,130.0,101.0,49.0,125.0,171.0,134.0,102.0,125.0,22.0,-268.0,-230.0,-264.0,-149.0,-134.0,-127.0,-139.0,-200.0,-57.0,-51.0,25.0,22.0,-29.0,-4.0,-40.0,-53.0,-146.0,-3.0,-62.0,50.0,41.0,20.0,13.0,40.0,15.0,-9.0,-5.0,6.0,64.0,65.0,90.0,63.0,-27.0,-88.0,-34.0,-3.0,18.0,27.0,-10.0,-22.0,-34.0,36.0,-26.0,0.0
16:15:00.531 12/08/2009,-5.0,36.0,52.0,-80.0,-16.0,24.0,-17.0,-35.0,43.0,18.0,-48.0,139.0,49.0,34.0,-27.0,47.0,100.0,58.0,43.0,63.0,-34.0,-332.0,-284.0,-324.0,-208.0,-172.0,-166.0,-188.0,-250.0,-81.0,-51.0,26.0,5.0,-58.0,-31.0,-67.0,-80.0,-171.0,-64.0,-65.0,27.0,48.0,30.0,18.0,49.0,32.0,0.0,27.0,29.0,82.0,84.0,115.0,86.0,-1.0,-46.0,17.0,42.0,52.0,54.0,21.0,23.0,-14.0,38.0,-16.0,0.0
16:15:00.538 12/08/2009,69.0,102.0,107.0,-31.0,30.0,62.0,28.0,35.0,101.0,77.0,-42.0,181.0,92.0,77.0,36.0,101.0,150.0,109.0,89.0,112.0,11.0,-296.0,-246.0,-281.0,-201.0,-102.0,-126.0,-144.0,-205.0,-17.0,-8.0,53.0,35.0,-22.0,4.0,-35.0,-29.0,-127.0,86.0,-80.0,103.0,90.0,94.0,68.0,93.0,59.0,43.0,22.0,37.0,99.0,102.0,138.0,119.0,30.0,-12.0,33.0,51.0,71.0,79.0,44.0,33.0,23.0,79.0,41.0,0.0
16:15:00.544 12/08/2009,8.0,63.0,85.0,-48.0,21.0,58.0,15.0,1.0,68.0,44.0,-84.0,170.0,84.0,60.0,15.0,73.0,119.0,81.0,68.0,92.0,-12.0,-305.0,-297.0,-337.0,-181.0,-181.0,-190.0,-207.0,-282.0,-89.0,-77.0,-15.0,-27.0,-87.0,-64.0,-92.0,-103.0,-223.0,-32.0,-122.0,15.0,13.0,30.0,-3.0,45.0,4.0,1.0,29.0,8.0,47.0,43.0,71.0,54.0,-31.0,-55.0,28.0,35.0,20.0,24.0,18.0,13.0,-13.0,54.0,-34.0,0.0
16:15:00.550 12/08/2009,-32.0,4.0,6.0,-127.0,-48.0,-8.0,-52.0,-57.0,16.0,-12.0,-72.0,117.0,34.0,10.0,-30.0,34.0,82.0,36.0,25.0,51.0,-37.0,-343.0,-322.0,-357.0,-197.0,-164.0,-210.0,-216.0,-252.0,-77.0,-68.0,-16.0,-33.0,-99.0,-71.0,-110.0,-124.0,-177.0,3.0,-88.0,49.0,19.0,73.0,50.0,76.0,59.0,49.0,41.0,45.0,89.0,88.0,129.0,119.0,57.0,42.0,63.0,81.0,78.0,119.0,111.0,61.0,49.0,121.0,59.0,0.0
16:15:00.556 12/08/2009,42.0,86.0,90.0,-49.0,32.0,67.0,29.0,26.0,87.0,64.0,-86.0,197.0,124.0,105.0,40.0,107.0,155.0,120.0,109.0,142.0,51.0,-314.0,-246.0,-289.0,-157.0,-92.0,-154.0,-158.0,-204.0,-25.0,-2.0,55.0,23.0,-48.0,-25.0,-56.0,-65.0,-146.0,14.0,-69.0,52.0,88.0,67.0,48.0,73.0,84.0,61.0,45.0,22.0,67.0,62.0,117.0,115.0,60.0,22.0,50.0,48.0,30.0,92.0,89.0,34.0,26.0,86.0,23.0,0.0
16:15:00.563 12/08/2009,-22.0,17.0,25.0,-106.0,-24.0,18.0,-20.0,-71.0,-14.0,-25.0,-68.0,132.0,44.0,33.0,-62.0,-5.0,53.0,21.0,21.0,54.0,-32.0,-325.0,-323.0,-353.0,-235.0,-204.0,-228.0,-215.0,-270.0,-131.0,-86.0,-33.0,-56.0,-117.0,-85.0,-103.0,-97.0,-198.0,-79.0,-96.0,-32.0,17.0,-7.0,-1.0,19.0,16.0,-13.0,2.0,-17.0,11.0,6.0,70.0,64.0,13.0,-3.0,7.0,16.0,-14.0,49.0,71.0,-29.0,-59.0,37.0,-63.0,0.0
16:15:00.569 12/08/2009,-35.0,7.0,33.0,-87.0,0.0,49.0,24.0,-67.0,-4.0,2.0,-76.0,161.0,92.0,82.0,-40.0,34.0,92.0,72.0,78.0,110.0,16.0,-308.0,-278.0,-299.0,-202.0,-155.0,-172.0,-146.0,-201.0,-69.0,-44.0,22.0,3.0,-44.0,-8.0,-21.0,-15.0,-125.0,-40.0,-24.0,10.0,91.0,45.0,64.0,48.0,89.0,61.0,32.0,34.0,78.0,71.0,135.0,125.0,63.0,52.0,73.0,65.0,44.0,97.0,102.0,44.0,31.0,76.0,41.0,0.0
16:15:00.575 12/08/2009,11.0,66.0,98.0,-21.0,68.0,100.0,63.0,-33.0,47.0,61.0,-58.0,212.0,127.0,101.0,-8.0,75.0,134.0,108.0,99.0,127.0,33.0,-336.0,-288.0,-300.0,-231.0,-145.0,-162.0,-153.0,-231.0,-90.0,-38.0,23.0,12.0,-34.0,-13.0,-24.0,-24.0,-132.0,-57.0,-46.0,-23.0,51.0,-10.0,24.0,15.0,43.0,10.0,30.0,17.0,54.0,36.0,80.0,77.0,13.0,4.0,33.0,38.0,-1.0,35.0,62.0,18.0,1.0,51.0,18.0,0.0
16:15:00.581 12/08/2009,-45.0,17.0,48.0,-72.0,6.0,35.0,-2.0,-68.0,5.0,14.0,-25.0,162.0,62.0,34.0,-43.0,38.0,95.0,56.0,42.0,62.0,-40.0,-353.0,-322.0,-337.0,-216.0,-179.0,-203.0,-195.0,-238.0,-120.0,-64.0,-22.0,-37.0,-86.0,-62.0,-83.0,-83.0,-184.0,-68.0,-78.0,-13.0,28.0,5.0,14.0,30.0,30.0,42.0,52.0,13.0,50.0,36.0,79.0,67.0,5.0,2.0,51.0,52.0,22.0,45.0,51.0,71.0,34.0,54.0,40.0,0.0
16:15:00.588 12/08/2009,-15.0,28.0,53.0,-59.0,18.0,45.0,25.0,-20.0,33.0,47.0,-66.0,183.0,104.0,76.0,27.0,96.0,153.0,113.0,100.0,127.0,31.0,-333.0,-268.0,-296.0,-141.0,-104.0,-137.0,-144.0,-222.0,-30.0,-29.0,42.0,40.0,-15.0,10.0,-23.0,-37.0,-133.0,6.0,-41.0,51.0,76.0,74.0,64.0,78.0,90.0,97.0,51.0,41.0,98.0,94.0,135.0,115.0,49.0,38.0,69.0,40.0,44.0,65.0,66.0,8.0,14.0,57.0,7.0,0.0
16:15:00.594 12/08/2009,-31.0,12.0,56.0,-45.0,24.0,41.0,8.0,-72.0,-22.0,11.0,-72.0,163.0,72.0,43.0,-57.0,14.0,83.0,54.0,52.0,74.0,-22.0,-306.0,-302.0,-331.0,-234.0,-200.0,-191.0,-199.0,-253.0,-140.0,-112.0,-41.0,-35.0,-76.0,-49.0,-79.0,-99.0,-184.0,-84.0,-101.0,-45.0,11.0,-16.0,3.0,-7.0,17.0,-3.0,-11.0,-30.0,19.0,26.0,71.0,57.0,-10.0,-19.0,21.0,-2.0,3.0,18.0,44.0,-4.0,-43.0,31.0,-39.0,0.0
16:15:00.600 12/08/2009,-60.0,-24.0,25.0,-67.0,10.0,44.0,-3.0,-87.0,-37.0,-4.0,-50.0,171.0,82.0,41.0,-33.0,39.0,103.0,77.0,76.0,98.0,-3.0,-302.0,-270.0,-269.0,-178.0,-142.0,-144.0,-122.0,-225.0,-96.0,-72.0,8.0,17.0,-18.0,25.0,-6.0,-21.0,-143.0,-87.0,-42.0,-1.0,48.0,71.0,36.0,80.0,56.0,106.0,99.0,65.0,101.0,98.0,135.0,116.0,36.0,15.0,106.0,82.0,66.0,67.0,58.0,53.0,32.0,59.0,29.0,0.0
16:15:00.606 12/08/2009,59.0,70.0,110.0,21.0,98.0,129.0,71.0,-7.0,45.0,69.0,-25.0,239.0,152.0,106.0,5.0,79.0,154.0,128.0,136.0,154.0,54.0,-250.0,-220.0,-280.0,-163.0,-113.0,-93.0,-93.0,-158.0,-41.0,-26.0,42.0,51.0,23.0,64.0,37.0,10.0,-113.0,39.0,-76.0,42.0,70.0,79.0,48.0,55.0,66.0,52.0,34.0,29.0,87.0,86.0,125.0,107.0,32.0,6.0,33.0,42.0,45.0,43.0,50.0,-1.0,-16.0,35.0,-1.0,0.0
16:15:00.613 12/08/2009,-59.0,12.0,59.0,-31.0,49.0,64.0,-2.0,-52.0,2.0,12.0,-52.0,172.0,87.0,28.0,-18.0,37.0,96.0,55.0,55.0,83.0,-21.0,-314.0,-303.0,-322.0,-216.0,-188.0,-163.0,-174.0,-260.0,-112.0,-72.0,-22.0,-14.0,-49.0,-13.0,-51.0,-82.0,-209.0,-51.0,-147.0,-3.0,-55.0,44.0,-13.0,55.0,16.0,52.0,67.0,35.0,73.0,67.0,101.0,86.0,6.0,-30.0,61.0,72.0,56.0,54.0,63.0,48.0,31.0,79.0,58.0,0.0
16:15:00.619 12/08/2009,8.0,53.0,91.0,-10.0,67.0,77.0,10.0,10.0,68.0,63.0,19.0,215.0,119.0,69.0,55.0,120.0,177.0,135.0,129.0,148.0,38.0,-256.0,-220.0,-254.0,-138.0,-89.0,-82.0,-92.0,-175.0,-20.0,-5.0,65.0,76.0,42.0,78.0,36.0,10.0,-111.0,45.0,-26.0,95.0,82.0,124.0,56.0,139.0,92.0,148.0,129.0,120.0,174.0,166.0,191.0,170.0,87.0,56.0,145.0,150.0,133.0,119.0,114.0,125.0,104.0,124.0,106.0,0.0
16:15:00.625 12/08/2009,55.0,116.0,139.0,34.0,99.0,110.0,61.0,46.0,108.0,103.0,-25.0,231.0,151.0,105.0,64.0,127.0,188.0,143.0,131.0,151.0,36.0,-312.0,-223.0,-254.0,-153.0,-78.0,-98.0,-123.0,-210.0,-46.0,-13.0,54.0,54.0,5.0,35.0,-9.0,-21.0,-166.0,-6.0,-62.0,42.0,40.0,70.0,22.0,85.0,48.0,87.0,91.0,70.0,117.0,101.0,120.0,101.0,27.0,-5.0,106.0,103.0,76.0,46.0,39.0,87.0,53.0,73.0,56.0,0.0
16:15:00.631 12/08/2009,-7.0,55.0,81.0,-25.0,35.0,51.0,-3.0,-20.0,37.0,32.0,-25.0,171.0,79.0,54.0,23.0,72.0,132.0,76.0,67.0,87.0,4.0,-308.0,-265.0,-311.0,-202.0,-125.0,-123.0,-157.0,-254.0,-87.0,-54.0,21.0,34.0,-17.0,18.0,-21.0,-55.0,-188.0,-24.0,-45.0,39.0,39.0,67.0,30.0,96.0,55.0,72.0,83.0,52.0,88.0,71.0,87.0,73.0,14.0,-1.0,69.0,81.0,46.0,27.0,34.0,49.0,23.0,57.0,40.0,0.0
16:15:00.638 12/08/2009,9.0,65.0,99.0,11.0,61.0,81.0,37.0,4.0,49.0,48.0,-92.0,172.0,90.0,69.0,37.0,92.0,149.0,88.0,83.0,92.0,19.0,-250.0,-197.0,-240.0,-151.0,-81.0,-60.0,-96.0,-219.0,-32.0,0.0,86.0,99.0,43.0,91.0,31.0,1.0,-101.0,15.0,-15.0,79.0,71.0,118.0,68.0,119.0,80.0,109.0,93.0,81.0,127.0,110.0,124.0,105.0,36.0,25.0,127.0,113.0,85.0,59.0,59.0,90.0,60.0,71.0,50.0,0.0
16:15:00.644 12/08/2009,20.0,90.0,121.0,22.0,68.0,69.0,26.0,1.0,53.0,45.0,-71.0,160.0,60.0,37.0,18.0,70.0,124.0,60.0,43.0,52.0,-22.0,-268.0,-238.0,-280.0,-175.0,-141.0,-111.0,-134.0,-179.0,-83.0,-43.0,25.0,35.0,-22.0,5.0,-46.0,-63.0,-177.0,-44.0,-84.0,3.0,60.0,41.0,-7.0,38.0,-1.0,24.0,37.0,-4.0,31.0,15.0,34.0,22.0,-39.0,-53.0,42.0,27.0,-8.0,-23.0,10.0,11.0,-16.0,20.0,4.0,0.0
16:15:00.650 12/08/2009,-21.0,37.0,69.0,-34.0,12.0,14.0,-9.0,-44.0,1.0,1.0,-65.0,133.0,39.0,41.0,-20.0,29.0,87.0,34.0,24.0,49.0,-29.0,-281.0,-254.0,-290.0,-181.0,-95.0,-114.0,-137.0,-207.0,-61.0,-18.0,44.0,48.0,-12.0,12.0,-41.0,-37.0,-142.0,-10.0,-52.0,22.0,15.0,92.0,39.0,78.0,45.0,48.0,45.0,20.0,70.0,63.0,96.0,79.0,11.0,2.0,67.0,50.0,41.0,38.0,42.0,30.0,20.0,61.0,19.0,0.0
16:15:00.656 12/08/2009,10.0,61.0,106.0,2.0,51.0,44.0,9.0,-11.0,27.0,46.0,-91.0,174.0,83.0,44.0,15.0,64.0,126.0,90.0,89.0,102.0,8.0,-298.0,-233.0,-280.0,-164.0,-95.0,-112.0,-133.0,-202.0,-45.0,-27.0,43.0,37.0,-17.0,8.0,-48.0,-50.0,-142.0,-1.0,-67.0,27.0,29.0,89.0,50.0,66.0,52.0,45.0,27.0,5.0,59.0,55.0,96.0,79.0,4.0,-9.0,52.0,32.0,26.0,21.0,29.0,18.0,1.0,44.0,-10.0,0.0
16:15:00.663 12/08/2009,-38.0,-11.0,17.0,-82.0,-27.0,-17.0,-33.0,-68.0,-56.0,-51.0,-123.0,97.0,6.0,-6.0,-51.0,-22.0,44.0,8.0,3.0,25.0,-54.0,-291.0,-299.0,-352.0,-177.0,-200.0,-197.0,-205.0,-263.0,-97.0,-105.0,-52.0,-54.0,-114.0,-77.0,-119.0,-106.0,-209.0,-54.0,-114.0,9.0,-25.0,22.0,0.0,34.0,13.0,-8.0,3.0,-41.0,12.0,7.0,49.0,44.0,-10.0,-16.0,10.0,1.0,-4.0,20.0,41.0,-3.0,-15.0,49.0,6.0,0.0
16:15:00.669 12/08/2009,-16.0,-11.0,10.0,-98.0,-32.0,-8.0,-26.0,-42.0,-31.0,-33.0,-120.0,114.0,42.0,35.0,-23.0,23.0,80.0,45.0,50.0,83.0,4.0,-265.0,-254.0,-314.0,-136.0,-139.0,-152.0,-154.0,-230.0,-41.0,-27.0,40.0,17.0,-46.0,-13.0,-56.0,-54.0,-167.0,-7.0,-53.0,65.0,52.0,79.0,65.0,90.0,92.0,67.0,70.0,58.0,109.0,101.0,152.0,142.0,71.0,51.0,128.0,114.0,97.0,106.0,93.0,108.0,81.0,110.0,76.0,0.0
16:15:00.675 12/08/2009,32.0,76.0,102.0,-20.0,51.0,72.0,23.0,25.0,55.0,59.0,-58.0,203.0,116.0,88.0,49.0,105.0,155.0,115.0,115.0,132.0,39.0,-296.0,-271.0,-318.0,-179.0,-129.0,-148.0,-184.0,-280.0,-42.0,-33.0,26.0,14.0,-40.0,-17.0,-64.0,-86.0,-215.0,16.0,-106.0,46.0,20.0,52.0,16.0,68.0,61.0,24.0,37.0,24.0,72.0,67.0,90.0,84.0,12.0,7.0,28.0,39.0,32.0,16.0,36.0,14.0,-2.0,42.0,14.0,0.0
16:15:00.681 12/08/2009,-64.0,-30.0,2.0,-109.0,-27.0,-3.0,-58.0,-83.0,-61.0,-55.0,-97.0,108.0,26.0,-5.0,-70.0,-15.0,42.0,4.0,-5.0,18.0,-49.0,-334.0,-340.0,-379.0,-240.0,-220.0,-223.0,-237.0,-277.0,-121.0,-114.0,-72.0,-83.0,-143.0,-99.0,-133.0,-121.0,-224.0,-78.0,-102.0,-53.0,-10.0,20.0,35.0,-8.0,30.0,-47.0,-22.0,-46.0,3.0,5.0,32.0,23.0,-24.0,-19.0,2.0,-2.0,-6.0,-4.0,8.0,1.0,-21.0,33.0,-18.0,0.0
16:15:00.688 12/08/2009,-66.0,-67.0,-28.0,-120.0,-43.0,-5.0,-17.0,-75.0,-72.0,-54.0,-212.0,108.0,50.0,49.0,-44.0,16.0,76.0,43.0,36.0,61.0,4.0,-297.0,-263.0,-308.0,-183.0,-143.0,-161.0,-159.0,-211.0,-51.0,-49.0,1.0,-13.0,-75.0,-26.0,-63.0,-58.0,-138.0,6.0,-33.0,20.0,68.0,84.0,82.0,62.0,77.0,37.0,36.0,32.0,90.0,83.0,97.0,77.0,-1.0,-26.0,73.0,65.0,63.0,19.0,3.0,102.0,90.0,64.0,118.0,0.0
16:15:00.694 12/08/2009,-28.0,-32.0,2.0,-101.0,-24.0,3.0,-20.0,-37.0,-45.0,-37.0,-152.0,112.0,33.0,22.0,-36.0,10.0,71.0,31.0,14.0,24.0,-51.0,-369.0,-340.0,-380.0,-232.0,-222.0,-231.0,-231.0,-303.0,-115.0,-120.0,-80.0,-91.0,-152.0,-109.0,-146.0,-139.0,-212.0,-89.0,-80.0,-57.0,-4.0,-2.0,8.0,-16.0,-18.0,-67.0,-36.0,-68.0,-19.0,-15.0,-7.0,-22.0,-86.0,-93.0,-52.0,-60.0,-55.0,-76.0,-55.0,-80.0,-127.0,-52.0,-128.0,0.0
16:15:00.700 12/08/2009,-83.0,-79.0,-52.0,-154.0,-86.0,-60.0,-53.0,-98.0,-60.0,-70.0,-147.0,69.0,-5.0,14.0,-78.0,-11.0,51.0,14.0,9.0,20.0,-51.0,-383.0,-338.0,-365.0,-226.0,-194.0,-208.0,-211.0,-251.0,-99.0,-89.0,-25.0,-48.0,-101.0,-62.0,-101.0,-72.0,-166.0,-25.0,-37.0,47.0,53.0,66.0,65.0,66.0,34.0,33.0,41.0,34.0,88.0,81.0,102.0,85.0,15.0,-13.0,72.0,52.0,51.0,18.0,16.0,29.0,-6.0,44.0,-8.0,0.0
16:15:00.706 12/08/2009,21.0,41.0,56.0,-56.0,21.0,41.0,35.0,16.0,64.0,39.0,-126.0,173.0,102.0,91.0,20.0,87.0,132.0,89.0,85.0,94.0,16.0,-378.0,-298.0,-337.0,-201.0,-133.0,-170.0,-180.0,-255.0,-51.0,-39.0,14.0,-8.0,-68.0,-33.0,-71.0,-50.0,-130.0,6.0,-29.0,53.0,53.0,78.0,66.0,61.0,32.0,-1.0,-5.0,-4.0,54.0,37.0,56.0,45.0,-26.0,-46.0,-26.0,5.0,-5.0,-34.0,-15.0,-16.0,-21.0,15.0,32.0,0.0
16:15:00.713 12/08/2009,-12.0,11.0,13.0,-114.0,-29.0,-1.0,-16.0,-32.0,25.0,-7.0,-136.0,130.0,45.0,30.0,-26.0,40.0,81.0,27.0,29.0,42.0,-30.0,-362.0,-353.0,-391.0,-315.0,-217.0,-240.0,-242.0,-320.0,-107.0,-76.0,-34.0,-63.0,-120.0,-85.0,-112.0,-118.0,-188.0,-43.0,-74.0,13.0,7.0,25.0,18.0,42.0,18.0,0.0,26.0,-18.0,26.0,7.0,30.0,23.0,-29.0,-33.0,-6.0,-8.0,-38.0,-47.0,-31.0,-33.0,-76.0,-13.0,-63.0,0.0
16:15:00.719 12/08/2009,-3.0,25.0,42.0,-87.0,1.0,26.0,-6.0,-8.0,54.0,29.0,-79.0,157.0,82.0,56.0,7.0,75.0,120.0,67.0,65.0,78.0,0.0,-312.0,-318.0,-367.0,-252.0,-169.0,-181.0,-174.0,-240.0,-67.0,-18.0,33.0,11.0,-43.0,-10.0,-45.0,-37.0,-144.0,5.0,-36.0,52.0,61.0,79.0,65.0,92.0,76.0,83.0,65.0,56.0,105.0,78.0,108.0,101.0,42.0,8.0,91.0,67.0,44.0,33.0,37.0,52.0,38.0,59.0,35.0,0.0
16:15:00.725 12/08/2009,32.0,69.0,95.0,-30.0,57.0,68.0,37.0,15.0,84.0,74.0,-87.0,201.0,108.0,79.0,14.0,92.0,145.0,102.0,89.0,92.0,6.0,-319.0,-301.0,-345.0,-177.0,-180.0,-189.0,-179.0,-237.0,-93.0,-77.0,-6.0,-23.0,-71.0,-44.0,-73.0,-77.0,-174.0,-43.0,-107.0,-11.0,17.0,12.0,14.0,17.0,12.0,5.0,5.0,-11.0,48.0,26.0,42.0,36.0,-46.0,-55.0,11.0,-8.0,-19.0,-35.0,-11.0,-25.0,-51.0,3.0,-40.0,0.0
16:15:00.731 12/08/2009,-50.0,-8.0,3.0,-119.0,-40.0,-25.0,-47.0,-63.0,11.0,-8.0,-68.0,110.0,12.0,1.0,-41.0,24.0,80.0,30.0,12.0,17.0,-70.0,-372.0,-359.0,-395.0,-274.0,-221.0,-235.0,-229.0,-271.0,-135.0,-98.0,-37.0,-53.0,-105.0,-78.0,-112.0,-97.0,-213.0,-82.0,-75.0,-37.0,17.0,12.0,29.0,33.0,23.0,26.0,25.0,4.0,59.0,37.0,59.0,45.0,-31.0,-40.0,33.0,23.0,11.0,4.0,16.0,15.0,-12.0,44.0,-18.0,0.0
16:15:00.738 12/08/2009,37.0,60.0,78.0,-51.0,17.0,12.0,11.0,12.0,86.0,70.0,-62.0,156.0,56.0,60.0,11.0,100.0,150.0,99.0,74.0,84.0,-1.0,-319.0,-277.0,-318.0,-216.0,-119.0,-146.0,-142.0,-181.0,-72.0,-36.0,46.0,37.0,-13.0,10.0,-36.0,-24.0,-122.0,5.0,-41.0,36.0,74.0,43.0,74.0,56.0,69.0,48.0,41.0,35.0,96.0,70.0,96.0,88.0,14.0,-4.0,67.0,53.0,26.0,25.0,36.0,64.0,41.0,60.0,24.0,0.0
16:15:00.744 12/08/2009,-64.0,25.0,59.0,-48.0,14.0,4.0,-5.0,-65.0,15.0,22.0,-99.0,127.0,11.0,13.0,-41.0,21.0,81.0,36.0,8.0,10.0,-74.0,-367.0,-327.0,-365.0,-244.0,-211.0,-208.0,-201.0,-269.0,-143.0,-125.0,-54.0,-46.0,-89.0,-64.0,-102.0,-96.0,-193.0,-90.0,-108.0,-50.0,1.0,-24.0,2.0,-9.0,-8.0,-25.0,-26.0,-37.0,13.0,-17.0,-2.0,-3.0,-60.0,-59.0,-29.0,-32.0,-46.0,-49.0,-11.0,-53.0,-73.0,6.0,-47.0,0.0
16:15:00.750 12/08/2009,-68.0,-23.0,16.0,-87.0,-22.0,-27.0,-49.0,-79.0,-22.0,-11.0,-89.0,102.0,-14.0,-10.0,-44.0,24.0,79.0,33.0,-1.0,11.0,-67.0,-298.0,-309.0,-356.0,-260.0,-205.0,-188.0,-208.0,-254.0,-106.0,-96.0,-28.0,-21.0,-58.0,-25.0,-76.0,-78.0,-191.0,-59.0,-60.0,2.0,3.0,35.0,44.0,58.0,29.0,65.0,54.0,43.0,88.0,53.0,69.0,67.0,11.0,10.0,81.0,71.0,37.0,31.0,55.0,66.0,44.0,75.0,50.0,0.0
16:15:00.756 12/08/2009,-20.0,23.0,63.0,-37.0,23.0,16.0,3.0,-15.0,27.0,30.0,-96.0,149.0,48.0,49.0,21.0,76.0,125.0,74.0,49.0,62.0,-30.0,-328.0,-275.0,-296.0,-250.0,-161.0,-165.0,-156.0,-263.0,-122.0,-79.0,-20.0,-5.0,-52.0,-23.0,-66.0,-78.0,-177.0,-46.0,-56.0,18.0,43.0,43.0,26.0,71.0,30.0,87.0,66.0,58.0,92.0,56.0,70.0,64.0,-9.0,-30.0,165.0,123.0,48.0,11.0,15.0,140.0,44.0,49.0,-26.0,0.0
16:15:00.763 12/08/2009,-41.0,-13.0,29.0,-71.0,-15.0,-12.0,-25.0,-33.0,-4.0,-4.0,-98.0,122.0,14.0,9.0,20.0,65.0,102.0,41.0,16.0,27.0,-64.0,-400.0,-345.0,-397.0,-338.0,-232.0,-206.0,-227.0,-270.0,-166.0,-138.0,-78.0,-63.0,-101.0,-72.0,-110.0,-114.0,-230.0,-93.0,-124.0,-23.0,5.0,-1.0,-6.0,43.0,-1.0,47.0,48.0,3.0,40.0,6.0,29.0,20.0,-36.0,-43.0,6.0,24.0,4.0,-8.0,16.0,-6.0,-8.0,48.0,41.0,0.0
16:15:00.769 12/08/2009,-69.0,-60.0,-6.0,-96.0,-34.0,-28.0,-33.0,-55.0,-32.0,-29.0,-117.0,103.0,20.0,34.0,-11.0,45.0,88.0,40.0,32.0,51.0,-15.0,-303.0,-291.0,-332.0,-278.0,-204.0,-167.0,-176.0,-219.0,-95.0,-80.0,-26.0,-6.0,-42.0,-11.0,-60.0,-54.0,-163.0,-16.0,-56.0,53.0,79.0,80.0,69.0,118.0,89.0,133.0,81.0,70.0,117.0,93.0,115.0,103.0,49.0,23.0,124.0,107.0,92.0,71.0,61.0,107.0,82.0,99.0,71.0,0.0
16:15:00.775 12/08/2009,5.0,8.0,66.0,-23.0,33.0,29.0,21.0,-4.0,14.0,24.0,-106.0,155.0,68.0,71.0,37.0,91.0,136.0,84.0,71.0,86.0,3.0,-353.0,-281.0,-327.0,-286.0,-193.0,-160.0,-175.0,-234.0,-120.0,-76.0,-17.0,-2.0,-46.0,-18.0,-68.0,-65.0,-185.0,-43.0,-82.0,3.0,44.0,26.0,35.0,57.0,37.0,80.0,64.0,42.0,87.0,58.0,80.0,68.0,-8.0,-24.0,68.0,69.0,51.0,18.0,26.0,51.0,22.0,53.0,25.0,0.0
16:15:00.781 12/08/2009,-59.0,-54.0,3.0,-72.0,-6.0,-6.0,-26.0,-72.0,-58.0,-44.0,-72.0,115.0,19.0,14.0,-46.0,20.0,68.0,29.0,22.0,35.0,-49.0,-355.0,-316.0,-361.0,-294.0,-215.0,-180.0,-203.0,-312.0,-139.0,-133.0,-61.0,-29.0,-68.0,-31.0,-82.0,-79.0,-202.0,-61.0,-93.0,-29.0,15.0,15.0,21.0,54.0,15.0,93.0,75.0,46.0,87.0,63.0,92.0,74.0,1.0,-17.0,129.0,128.0,81.0,48.0,50.0,117.0,69.0,100.0,51.0,0.0
16:15:00.788 12/08/2009,-21.0,-29.0,36.0,-37.0,26.0,25.0,7.0,-21.0,-7.0,12.0,-76.0,158.0,67.0,59.0,37.0,100.0,142.0,97.0,86.0,98.0,16.0,-261.0,-240.0,-282.0,-157.0,-123.0,-124.0,-140.0,-197.0,-61.0,-68.0,-7.0,24.0,-18.0,11.0,-44.0,-24.0,-130.0,6.0,-46.0,46.0,70.0,74.0,79.0,97.0,70.0,114.0,106.0,110.0,149.0,111.0,138.0,120.0,46.0,16.0,142.0,166.0,117.0,85.0,67.0,148.0,118.0,127.0,120.0,0.0
16:15:00.794 12/08/2009,-7.0,-6.0,46.0,-37.0,29.0,30.0,12.0,-18.0,20.0,15.0,-85.0,147.0,46.0,50.0,22.0,86.0,128.0,73.0,54.0,64.0,-20.0,-297.0,-267.0,-307.0,-230.0,-173.0,-158.0,-171.0,-241.0,-124.0,-113.0,-54.0,-22.0,-67.0,-31.0,-76.0,-49.0,-188.0,-65.0,-87.0,4.0,18.0,-20.0,15.0,35.0,7.0,32.0,52.0,41.0,73.0,43.0,65.0,43.0,-13.0,-42.0,64.0,84.0,40.0,15.0,32.0,71.0,27.0,81.0,30.0,0.0
16:15:00.800 12/08/2009,-25.0,-21.0,20.0,-72.0,-10.0,-15.0,-23.0,-35.0,18.0,-7.0,-64.0,117.0,26.0,20.0,1.0,80.0,118.0,63.0,48.0,62.0,-25.0,-267.0,-277.0,-309.0,-220.0,-176.0,-150.0,-177.0,-249.0,-101.0,-82.0,-22.0,2.0,-48.0,-19.0,-74.0,-80.0,-166.0,-64.0,-72.0,39.0,45.0,21.0,51.0,74.0,58.0,90.0,122.0,119.0,154.0,116.0,143.0,125.0,48.0,23.0,178.0,184.0,128.0,91.0,102.0,192.0,145.0,165.0,118.0,0.0
16:15:00.806 12/08/2009,2.0,38.0,69.0,-33.0,31.0,34.0,10.0,11.0,75.0,51.0,-92.0,173.0,82.0,61.0,40.0,119.0,159.0,106.0,86.0,96.0,7.0,-286.0,-260.0,-293.0,-209.0,-166.0,-145.0,-163.0,-215.0,-75.0,-69.0,-30.0,0.0,-43.0,-19.0,-76.0,-63.0,-149.0,13.0,-111.0,52.0,60.0,49.0,63.0,50.0,49.0,22.0,29.0,56.0,107.0,76.0,90.0,77.0,1.0,-22.0,20.0,82.0,67.0,25.0,38.0,44.0,35.0,97.0,48.0,0.0
16:15:00.813 12/08/2009,-32.0,-6.0,31.0,-73.0,-5.0,1.0,-43.0,-32.0,26.0,3.0,-90.0,134.0,35.0,18.0,-5.0,71.0,111.0,59.0,41.0,46.0,-51.0,-341.0,-329.0,-363.0,-268.0,-222.0,-196.0,-224.0,-290.0,-156.0,-128.0,-69.0,-47.0,-90.0,-68.0,-120.0,-117.0,-228.0,-75.0,-89.0,3.0,28.0,8.0,-1.0,39.0,-16.0,37.0,74.0,51.0,82.0,46.0,56.0,36.0,-46.0,-67.0,62.0,79.0,36.0,-21.0,-3.0,57.0,-12.0,22.0,-6.0,0.0
16:15:00.819 12/08/2009,-27.0,0.0,40.0,-72.0,-2.0,5.0,-21.0,-21.0,36.0,16.0,-69.0,140.0,48.0,52.0,23.0,96.0,136.0,88.0,70.0,81.0,-15.0,-372.0,-297.0,-333.0,-269.0,-124.0,-144.0,-171.0,-233.0,-88.0,-66.0,-2.0,15.0,-37.0,-13.0,-70.0,-54.0,-180.0,8.0,-56.0,68.0,42.0,85.0,77.0,102.0,86.0,106.0,113.0,125.0,161.0,126.0,146.0,125.0,59.0,30.0,168.0,177.0,130.0,84.0,87.0,199.0,150.0,149.0,142.0,0.0
16:15:00.825 12/08/2009,9.0,40.0,75.0,-32.0,36.0,34.0,1.0,13.0,72.0,51.0,-76.0,171.0,70.0,46.0,49.0,117.0,155.0,107.0,90.0,92.0,-5.0,-286.0,-282.0,-320.0,-219.0,-186.0,-156.0,-184.0,-252.0,-95.0,-85.0,-35.0,-15.0,-59.0,-34.0,-93.0,-91.0,-191.0,-39.0,-98.0,22.0,16.0,40.0,33.0,44.0,10.0,22.0,61.0,44.0,85.0,50.0,56.0,34.0,-31.0,-58.0,13.0,48.0,20.0,-13.0,13.0,20.0,-37.0,29.0,-37.0,0.0
16:15:00.831 12/08/2009,-61.0,-16.0,28.0,-67.0,-10.0,-15.0,-49.0,-66.0,0.0,-10.0,-71.0,120.0,-4.0,-8.0,-39.0,28.0,82.0,41.0,16.0,15.0,-80.0,-294.0,-290.0,-325.0,-248.0,-165.0,-151.0,-173.0,-238.0,-120.0,-82.0,-30.0,4.0,-44.0,-13.0,-74.0,-62.0,-182.0,-56.0,-82.0,-2.0,10.0,32.0,34.0,27.0,12.0,15.0,49.0,40.0,77.0,50.0,50.0,29.0,-27.0,-44.0,54.0,82.0,37.0,0.0,27.0,69.0,23.0,75.0,35.0,0.0
16:15:00.838 12/08/2009,-12.0,34.0,88.0,-6.0,50.0,48.0,20.0,-16.0,43.0,50.0,-65.0,167.0,43.0,41.0,12.0,87.0,146.0,108.0,87.0,81.0,-9.0,-222.0,-208.0,-234.0,-130.0,-101.0,-77.0,-92.0,-171.0,-46.0,-33.0,33.0,67.0,17.0,56.0,2.0,17.0,-91.0,13.0,-26.0,45.0,82.0,71.0,90.0,58.0,79.0,50.0,44.0,62.0,116.0,100.0,108.0,93.0,26.0,23.0,51.0,83.0,62.0,42.0,54.0,80.0,55.0,83.0,56.0,0.0
16:15:00.844 12/08/2009,-18.0,30.0,76.0,-15.0,40.0,35.0,19.0,-41.0,1.0,16.0,-81.0,147.0,13.0,24.0,-29.0,34.0,102.0,73.0,42.0,43.0,-46.0,-269.0,-272.0,-296.0,-253.0,-157.0,-138.0,-159.0,-232.0,-101.0,-100.0,-35.0,-4.0,-55.0,-20.0,-65.0,-49.0,-175.0,-65.0,-77.0,-18.0,6.0,-4.0,19.0,7.0,5.0,-6.0,4.0,-20.0,25.0,11.0,16.0,4.0,-48.0,-61.0,-3.0,8.0,-24.0,-42.0,-8.0,11.0,-38.0,18.0,-11.0,0.0
16:15:00.850 12/08/2009,-54.0,-34.0,17.0,-69.0,-21.0,-20.0,-31.0,-71.0,-48.0,-36.0,-78.0,109.0,-4.0,7.0,-45.0,15.0,71.0,43.0,26.0,34.0,-42.0,-284.0,-274.0,-299.0,-210.0,-134.0,-133.0,-153.0,-227.0,-74.0,-71.0,-13.0,17.0,-31.0,3.0,-49.0,-22.0,-140.0,-7.0,-52.0,26.0,61.0,48.0,68.0,63.0,70.0,81.0,69.0,59.0,105.0,93.0,108.0,95.0,39.0,25.0,99.0,103.0,69.0,50.0,64.0,117.0,74.0,103.0,89.0,0.0
16:15:00.856 12/08/2009,-3.0,11.0,80.0,-7.0,57.0,60.0,36.0,-21.0,14.0,38.0,-67.0,186.0,99.0,82.0,10.0,78.0,138.0,114.0,103.0,116.0,34.0,-288.0,-244.0,-270.0,-187.0,-143.0,-125.0,-118.0,-156.0,-86.0,-89.0,-30.0,4.0,-33.0,-4.0,-50.0,-29.0,-154.0,-33.0,-47.0,0.0,48.0,30.0,65.0,20.0,52.0,43.0,33.0,37.0,77.0,56.0,79.0,68.0,2.0,-17.0,55.0,54.0,22.0,-1.0,17.0,65.0,22.0,39.0,35.0,0.0
16:15:00.863 12/08/2009,-44.0,-45.0,16.0,-75.0,-10.0,2.0,-27.0,-72.0,-34.0,-20.0,-74.0,133.0,40.0,17.0,-51.0,20.0,74.0,48.0,35.0,42.0,-33.0,-323.0,-317.0,-344.0,-240.0,-215.0,-186.0,-196.0,-268.0,-151.0,-139.0,-81.0,-54.0,-76.0,-49.0,-98.0,-90.0,-209.0,-103.0,-92.0,-51.0,-1.0,-3.0,12.0,14.0,5.0,29.0,32.0,3.0,48.0,39.0,54.0,36.0,-34.0,-53.0,22.0,25.0,8.0,-29.0,-7.0,18.0,-17.0,26.0,26.0,0.0
16:15:00.869 12/08/2009,-71.0,-36.0,34.0,-50.0,27.0,35.0,-5.0,-62.0,-8.0,18.0,-48.0,168.0,97.0,63.0,1.0,77.0,127.0,106.0,94.0,100.0,24.0,-305.0,-268.0,-290.0,-221.0,-130.0,-128.0,-141.0,-199.0,-58.0,-78.0,-17.0,16.0,-17.0,6.0,-43.0,-30.0,-143.0,49.0,-32.0,62.0,77.0,101.0,85.0,92.0,81.0,97.0,82.0,79.0,130.0,116.0,135.0,117.0,44.0,17.0,103.0,106.0,86.0,49.0,44.0,102.0,69.0,86.0,70.0,0.0
16:15:00.875 12/08/2009,6.0,5.0,59.0,-39.0,37.0,32.0,6.0,13.0,27.0,42.0,-83.0,187.0,105.0,70.0,35.0,101.0,140.0,111.0,102.0,109.0,22.0,-346.0,-296.0,-322.0,-288.0,-181.0,-178.0,-190.0,-232.0,-93.0,-100.0,-63.0,-48.0,-85.0,-62.0,-106.0,-89.0,-195.0,-20.0,-97.0,27.0,-4.0,23.0,36.0,52.0,39.0,60.0,51.0,26.0,68.0,48.0,68.0,59.0,3.0,-18.0,35.0,43.0,10.0,-6.0,25.0,36.0,-1.0,52.0,24.0,0.0
16:15:00.881 12/08/2009,-66.0,-71.0,-24.0,-126.0,-41.0,-30.0,-65.0,-77.0,-55.0,-41.0,-93.0,112.0,39.0,4.0,-49.0,17.0,55.0,31.0,26.0,40.0,-35.0,-318.0,-333.0,-370.0,-301.0,-247.0,-221.0,-232.0,-301.0,-128.0,-105.0,-96.0,-71.0,-106.0,-76.0,-114.0,-86.0,-243.0,-36.0,-138.0,3.0,24.0,30.0,24.0,33.0,36.0,26.0,52.0,22.0,56.0,35.0,63.0,49.0,-8.0,-10.0,50.0,57.0,13.0,-3.0,19.0,64.0,18.0,42.0,63.0,0.0
16:15:00.888 12/08/2009,-23.0,-23.0,34.0,-61.0,16.0,16.0,-3.0,-17.0,10.0,22.0,-82.0,163.0,83.0,64.0,12.0,84.0,123.0,97.0,83.0,92.0,22.0,-260.0,-244.0,-285.0,-203.0,-155.0,-135.0,-135.0,-240.0,-70.0,-62.0,-18.0,10.0,-25.0,10.0,-31.0,-37.0,-143.0,14.0,-35.0,55.0,87.0,87.0,89.0,72.0,102.0,69.0,77.0,64.0,119.0,103.0,131.0,115.0,52.0,46.0,86.0,79.0,79.0,56.0,72.0,96.0,73.0,99.0,70.0,0.0
16:15:00.894 12/08/2009,-12.0,15.0,62.0,-34.0,44.0,49.0,22.0,-11.0,40.0,35.0,-65.0,166.0,83.0,61.0,-1.0,73.0,112.0,78.0,63.0,65.0,-18.0,-293.0,-289.0,-303.0,-210.0,-196.0,-166.0,-181.0,-241.0,-106.0,-135.0,-71.0,-42.0,-77.0,-43.0,-90.0,-110.0,-210.0,-64.0,-95.0,-7.0,10.0,2.0,14.0,22.0,25.0,15.0,31.0,-1.0,43.0,21.0,30.0,16.0,-47.0,-45.0,26.0,26.0,-2.0,-40.0,-10.0,35.0,-29.0,16.0,-8.0,0.0
16:15:00.900 12/08/2009,-55.0,-25.0,8.0,-88.0,-12.0,-6.0,-33.0,-49.0,15.0,-9.0,-95.0,123.0,35.0,28.0,-12.0,67.0,92.0,53.0,47.0,46.0,-27.0,-299.0,-288.0,-307.0,-212.0,-159.0,-152.0,-152.0,-261.0,-85.0,-97.0,-31.0,-6.0,-49.0,-10.0,-55.0,-54.0,-163.0,-17.0,-56.0,42.0,56.0,51.0,59.0,96.0,75.0,134.0,145.0,114.0,144.0,112.0,122.0,105.0,35.0,21.0,203.0,164.0,100.0,54.0,56.0,165.0,84.0,96.0,58.0,0.0
16:15:00.906 12/08/2009,18.0,47.0,68.0,-37.0,36.0,50.0,33.0,10.0,79.0,47.0,-106.0,163.0,98.0,91.0,21.0,103.0,143.0,107.0,98.0,100.0,14.0,-267.0,-256.0,-297.0,-209.0,-142.0,-121.0,-137.0,-173.0,-58.0,-62.0,-11.0,5.0,-39.0,-6.0,-45.0,-39.0,-129.0,10.0,-35.0,32.0,63.0,53.0,72.0,55.0,72.0,31.0,36.0,49.0,111.0,96.0,108.0,92.0,30.0,15.0,-4.0,45.0,63.0,41.0,65.0,41.0,35.0,92.0,53.0,0.0
16:15:00.913 12/08/2009,-31.0,17.0,34.0,-74.0,-3.0,14.0,-6.0,-61.0,19.0,-2.0,-108.0,120.0,46.0,41.0,-63.0,22.0,66.0,29.0,30.0,39.0,-42.0,-327.0,-325.0,-353.0,-299.0,-180.0,-187.0,-224.0,-303.0,-152.0,-126.0,-68.0,-53.0,-104.0,-74.0,-107.0,-100.0,-204.0,-83.0,-102.0,-82.0,-2.0,-23.0,15.0,-20.0,11.0,-56.0,-35.0,-50.0,5.0,-5.0,12.0,3.0,-54.0,-73.0,-63.0,-20.0,-25.0,-59.0,-39.0,-11.0,-36.0,-6.0,22.0,0.0
16:15:00.919 12/08/2009,-44.0,-7.0,20.0,-83.0,-12.0,-1.0,-16.0,-62.0,10.0,-8.0,-118.0,116.0,41.0,36.0,-36.0,52.0,86.0,50.0,42.0,48.0,-25.0,-271.0,-249.0,-277.0,-241.0,-148.0,-133.0,-161.0,-223.0,-55.0,-40.0,-4.0,11.0,-36.0,-5.0,-56.0,-28.0,-119.0,7.0,-18.0,27.0,69.0,68.0,94.0,61.0,77.0,47.0,47.0,52.0,103.0,84.0,98.0,83.0,16.0,0.0,35.0,73.0,69.0,32.0,35.0,68.0,71.0,96.0,100.0,0.0
16:15:00.925 12/08/2009,15.0,55.0,82.0,-23.0,32.0,28.0,20.0,-8.0,63.0,47.0,-92.0,148.0,46.0,45.0,-2.0,83.0,125.0,83.0,59.0,53.0,-37.0,-237.0,-230.0,-265.0,-156.0,-150.0,-134.0,-157.0,-203.0,-68.0,-58.0,-24.0,2.0,-44.0,-16.0,-63.0,-55.0,-139.0,-24.0,-58.0,-27.0,18.0,27.0,43.0,17.0,17.0,15.0,21.0,5.0,49.0,20.0,16.0,2.0,-69.0,-72.0,-7.0,20.0,-12.0,-64.0,-37.0,16.0,-18.0,-1.0,-6.0,0.0
16:15:00.931 12/08/2009,-22.0,-14.0,23.0,-73.0,-27.0,-46.0,-44.0,-69.0,-27.0,-35.0,-87.0,69.0,-68.0,-41.0,-71.0,-11.0,36.0,0.0,-29.0,-46.0,-128.0,-227.0,-257.0,-278.0,-193.0,-180.0,-140.0,-155.0,-203.0,-88.0,-62.0,-28.0,-7.0,-53.0,-15.0,-65.0,-37.0,-141.0,-73.0,-69.0,-64.0,16.0,21.0,36.0,11.0,13.0,15.0,27.0,-11.0,31.0,7.0,7.0,-5.0,-58.0,-44.0,-25.0,17.0,-4.0,-33.0,-1.0,9.0,-20.0,50.0,20.0,0.0
16:15:00.938 12/08/2009,-13.0,21.0,76.0,-8.0,36.0,8.0,16.0,-57.0,-5.0,15.0,-88.0,119.0,-25.0,5.0,-18.0,39.0,91.0,58.0,18.0,-6.0,-80.0,-204.0,-191.0,-214.0,-136.0,-96.0,-79.0,-95.0,-146.0,-22.0,-16.0,13.0,42.0,2.0,37.0,-12.0,5.0,-105.0,39.0,-48.0,50.0,13.0,68.0,79.0,50.0,28.0,55.0,36.0,23.0,72.0,40.0,35.0,18.0,-45.0,-42.0,47.0,45.0,12.0,-34.0,-23.0,23.0,-20.0,11.0,-3.0,0.0
16:15:00.944 12/08/2009,-26.0,-6.0,47.0,-37.0,15.0,-2.0,4.0,-72.0,-30.0,-9.0,-105.0,106.0,-20.0,-11.0,-43.0,16.0,67.0,36.0,-2.0,-16.0,-101.0,-297.0,-266.0,-277.0,-300.0,-186.0,-154.0,-163.0,-214.0,-99.0,-77.0,-42.0,-29.0,-75.0,-44.0,-82.0,-55.0,-142.0,-67.0,-67.0,-31.0,12.0,14.0,15.0,15.0,-9.0,18.0,17.0,-6.0,20.0,-4.0,3.0,-8.0,-63.0,-59.0,4.0,8.0,-32.0,-55.0,-21.0,-4.0,-42.0,12.0,-16.0,0.0
16:15:00.950 12/08/2009,-68.0,-50.0,2.0,-90.0,-35.0,-34.0,-24.0,-100.0,-62.0,-50.0,-84.0,79.0,-16.0,-3.0,-67.0,-10.0,44.0,11.0,-9.0,-13.0,-101.0,-288.0,-282.0,-294.0,-251.0,-158.0,-156.0,-164.0,-205.0,-96.0,-88.0,-45.0,-25.0,-68.0,-33.0,-76.0,-41.0,-134.0,-25.0,-45.0,3.0,40.0,57.0,59.0,50.0,23.0,65.0,40.0,17.0,51.0,37.0,58.0,48.0,-18.0,-12.0,51.0,43.0,21.0,-4.0,-1.0,33.0,10.0,56.0,38.0,0.0
16:15:00.956 12/08/2009,-1.0,5.0,54.0,-27.0,25.0,26.0,44.0,-34.0,-5.0,5.0,-122.0,134.0,62.0,77.0,-6.0,45.0,98.0,67.0,50.0,48.0,-21.0,-258.0,-230.0,-234.0,-156.0,-134.0,-116.0,-127.0,-166.0,-59.0,-49.0,-6.0,7.0,-37.0,-13.0,-53.0,-12.0,-114.0,-11.0,-13.0,4.0,89.0,48.0,64.0,25.0,45.0,63.0,16.0,-8.0,37.0,15.0,34.0,24.0,-40.0,-40.0,23.0,7.0,-17.0,-53.0,-27.0,-7.0,-35.0,3.0,-21.0,0.0
16:15:00.963 12/08/2009,-58.0,-63.0,-11.0,-91.0,-34.0,-37.0,-14.0,-107.0,-91.0,-68.0,-124.0,82.0,11.0,43.0,-74.0,-37.0,17.0,-8.0,-15.0,-14.0,-83.0,-335.0,-319.0,-329.0,-267.0,-192.0,-194.0,-219.0,-283.0,-131.0,-117.0,-75.0,-56.0,-106.0,-79.0,-121.0,-96.0,-171.0,-74.0,-51.0,-46.0,29.0,-3.0,5.0,-3.0,17.0,13.0,4.0,-27.0,2.0,-13.0,4.0,1.0,-55.0,-51.0,0.0,-1.0,-35.0,-61.0,-35.0,-11.0,-40.0,9.0,-7.0,0.0
16:15:00.969 12/08/2009,-62.0,-73.0,-14.0,-92.0,-22.0,-15.0,-14.0,-80.0,-60.0,-48.0,-99.0,107.0,50.0,48.0,-20.0,24.0,69.0,40.0,41.0,41.0,-30.0,-320.0,-300.0,-308.0,-237.0,-170.0,-166.0,-181.0,-212.0,-78.0,-75.0,-37.0,-13.0,-58.0,-27.0,-76.0,-68.0,-122.0,2.0,-55.0,46.0,40.0,81.0,74.0,97.0,92.0,128.0,72.0,65.0,97.0,77.0,97.0,90.0,32.0,43.0,100.0,98.0,59.0,33.0,46.0,99.0,74.0,93.0,101.0,0.0
16:15:00.975 12/08/2009,11.0,10.0,43.0,-43.0,38.0,29.0,21.0,1.0,26.0,7.0,-109.0,147.0,98.0,67.0,42.0,76.0,103.0,67.0,62.0,68.0,-20.0,-315.0,-288.0,-304.0,-277.0,-180.0,-164.0,-177.0,-213.0,-77.0,-74.0,-39.0,-30.0,-73.0,-45.0,-88.0,-73.0,-158.0,-23.0,-50.0,17.0,14.0,41.0,30.0,52.0,23.0,76.0,50.0,11.0,38.0,17.0,35.0,26.0,-51.0,-60.0,50.0,40.0,-18.0,-53.0,-23.0,30.0,-26.0,-1.0,-27.0,0.0
16:15:00.981 12/08/2009,-53.0,-45.0,-17.0,-106.0,-26.0,-26.0,-42.0,-67.0,-25.0,-50.0,-95.0,100.0,39.0,17.0,-25.0,11.0,38.0,10.0,9.0,16.0,-72.0,-359.0,-345.0,-351.0,-260.0,-205.0,-210.0,-229.0,-304.0,-130.0,-118.0,-93.0,-65.0,-102.0,-76.0,-110.0,-98.0,-185.0,-49.0,-48.0,8.0,15.0,40.0,39.0,62.0,33.0,64.0,40.0,10.0,49.0,31.0,56.0,46.0,-11.0,-1.0,44.0,56.0,12.0,-12.0,15.0,40.0,13.0,61.0,68.0,0.0
16:15:00.988 12/08/2009,-11.0,0.0,28.0,-68.0,12.0,12.0,6.0,-3.0,46.0,20.0,-115.0,146.0,87.0,71.0,33.0,88.0,111.0,82.0,76.0,78.0,-11.0,-286.0,-269.0,-299.0,-212.0,-166.0,-147.0,-158.0,-202.0,-65.0,-49.0,-34.0,-13.0,-52.0,-24.0,-71.0,-61.0,-143.0,-4.0,-26.0,54.0,56.0,63.0,72.0,82.0,67.0,109.0,63.0,42.0,88.0,59.0,80.0,65.0,4.0,1.0,88.0,67.0,23.0,0.0,10.0,65.0,26.0,42.0,40.0,0.0
16:15:00.994 12/08/2009,-17.0,3.0,15.0,-80.0,-14.0,-15.0,-21.0,-27.0,23.0,-14.0,-143.0,98.0,29.0,18.0,-5.0,40.0,58.0,20.0,9.0,7.0,-83.0,-277.0,-298.0,-323.0,-247.0,-216.0,-183.0,-216.0,-271.0,-114.0,-106.0,-84.0,-59.0,-106.0,-76.0,-124.0,-117.0,-209.0,-79.0,-121.0,-16.0,-16.0,1.0,5.0,14.0,-4.0,35.0,12.0,-23.0,9.0,-7.0,5.0,-6.0,-66.0,-44.0,-1.0,4.0,-42.0,-54.0,-7.0,-9.0,-40.0,13.0,1.0,0.0
16:15:01.000 12/08/2009,-53.0,-35.0,2.0,-95.0,-31.0,-41.0,-48.0,-64.0,-3.0,-27.0,-67.0,92.0,18.0,13.0,-33.0,26.0,51.0,23.0,20.0,17.0,-64.0,-265.0,-272.0,-305.0,-268.0,-145.0,-138.0,-169.0,-225.0,-96.0,-78.0,-30.0,-4.0,-50.0,-16.0,-72.0,-65.0,-156.0,-48.0,-17.0,5.0,44.0,22.0,61.0,32.0,56.0,53.0,29.0,19.0,72.0,51.0,70.0,61.0,-8.0,3.0,37.0,48.0,15.0,-8.0,10.0,36.0,13.0,43.0,41.0,12587.0
16:15:01.006 12/08/2009,54.0,66.0,100.0,4.0,68.0,59.0,45.0,25.0,102.0,73.0,-57.0,180.0,108.0,88.0,34.0,107.0,130.0,106.0,96.0,86.0,-1.0,-224.0,-182.0,-214.0,-189.0,-107.0,-79.0,-103.0,-172.0,-74.0,-32.0,25.0,46.0,-4.0,31.0,-20.0,-21.0,-97.0,-21.0,-1.0,0.0,25.0,6.0,71.0,15.0,56.0,49.0,15.0,0.0,61.0,31.0,41.0,30.0,-36.0,-24.0,36.0,19.0,-24.0,-58.0,-46.0,15.0,-40.0,-25.0,-23.0,12587.0
16:15:01.013 12/08/2009,-78.0,-4.0,39.0,-49.0,21.0,15.0,6.0,-90.0,8.0,-8.0,-70.0,111.0,34.0,39.0,-32.0,26.0,59.0,31.0,16.0,14.0,-69.0,-272.0,-279.0,-288.0,-275.0,-183.0,-151.0,-158.0,-211.0,-140.0,-127.0,-68.0,-30.0,-71.0,-21.0,-62.0,-55.0,-157.0,-76.0,-28.0,-71.0,25.0,-58.0,16.0,-9.0,10.0,46.0,36.0,-11.0,20.0,-4.0,6.0,3.0,-53.0,-33.0,20.0,10.0,-36.0,-52.0,-27.0,-6.0,-42.0,8.0,-4.0,5140.0
16:15:01.019 12/08/2009,-77.0,-28.0,21.0,-60.0,3.0,-6.0,1.0,-80.0,-10.0,-24.0,-78.0,90.0,8.0,27.0,-54.0,17.0,62.0,32.0,15.0,14.0,-53.0,-230.0,-243.0,-261.0,-183.0,-156.0,-107.0,-117.0,-165.0,-105.0,-86.0,-25.0,12.0,-18.0,27.0,-21.0,-6.0,-84.0,-29.0,-2.0,0.0,64.0,27.0,83.0,34.0,53.0,52.0,21.0,27.0,76.0,56.0,61.0,51.0,-4.0,12.0,25.0,52.0,36.0,4.0,3.0,41.0,26.0,56.0,68.0,5140.0
16:15:01.025 12/08/2009,-20.0,18.0,71.0,-16.0,33.0,4.0,24.0,-39.0,33.0,30.0,-108.0,116.0,8.0,33.0,5.0,68.0,99.0,68.0,32.0,25.0,-52.0,-250.0,-240.0,-257.0,-200.0,-160.0,-136.0,-146.0,-196.0,-119.0,-103.0,-52.0,-23.0,-63.0,-26.0,-73.0,-64.0,-171.0,-78.0,-55.0,-50.0,8.0,-27.0,24.0,-12.0,2.0,29.0,15.0,8.0,43.0,20.0,21.0,8.0,-52.0,-39.0,20.0,26.0,1.0,-35.0,-5.0,15.0,-15.0,19.0,-4.0,0.0
16:15:01.031 12/08/2009,-86.0,-45.0,14.0,-84.0,-39.0,-64.0,-45.0,-110.0,-30.0,-20.0,-57.0,67.0,-49.0,-25.0,-50.0,25.0,67.0,34.0,-3.0,-12.0,-87.0,-313.0,-278.0,-295.0,-256.0,-153.0,-142.0,-146.0,-211.0,-117.0,-91.0,-32.0,-4.0,-52.0,-9.0,-63.0,-59.0,-137.0,-61.0,-49.0,-30.0,24.0,-8.0,39.0,31.0,30.0,96.0,99.0,76.0,101.0,77.0,78.0,63.0,0.0,7.0,157.0,122.0,71.0,39.0,56.0,166.0,116.0,108.0,119.0,0.0
16:15:01.038 12/08/2009,-21.0,23.0,81.0,-14.0,33.0,24.0,27.0,-52.0,40.0,48.0,-39.0,146.0,36.0,56.0,4.0,86.0,135.0,107.0,70.0,65.0,-21.0,-226.0,-204.0,-233.0,-184.0,-122.0,-88.0,-101.0,-166.0,-55.0,-31.0,5.0,33.0,-2.0,42.0,-5.0,-12.0,-97.0,-22.0,-12.0,3.0,62.0,44.0,79.0,15.0,63.0,25.0,-3.0,33.0,99.0,79.0,90.0,68.0,2.0,5.0,-15.0,24.0,45.0,11.0,10.0,-25.0,-21.0,42.0,-16.0,0.0
16:15:01.044 12/08/2009,-28.0,13.0,78.0,-6.0,47.0,37.0,31.0,-69.0,17.0,32.0,-65.0,147.0,32.0,48.0,-32.0,46.0,100.0,75.0,42.0,28.0,-58.0,-226.0,-233.0,-257.0,-215.0,-159.0,-122.0,-124.0,-166.0,-119.0,-83.0,-43.0,-3.0,-27.0,15.0,-29.0,-31.0,-122.0,-70.0,-39.0,-49.0,33.0,-19.0,29.0,-11.0,23.0,6.0,15.0,3.0,45.0,19.0,23.0,4.0,-55.0,-56.0,9.0,17.0,-23.0,-61.0,-24.0,2.0,-58.0,-15.0,-12.0,0.0
16:15:01.050 12/08/2009,-78.0,-45.0,31.0,-52.0,10.0,15.0,4.0,-115.0,-35.0,-13.0,-41.0,118.0,21.0,37.0,-63.0,12.0,67.0,51.0,26.0,18.0,-64.0,-273.0,-277.0,-287.0,-274.0,-180.0,-136.0,-140.0,-236.0,-129.0,-112.0,-47.0,-5.0,-31.0,22.0,-6.0,21.0,-126.0,-64.0,13.0,-36.0,135.0,8.0,62.0,13.0,52.0,15.0,22.0,15.0,73.0,64.0,83.0,65.0,8.0,10.0,25.0,35.0,32.0,5.0,26.0,25.0,-1.0,46.0,39.0,0.0
16:15:01.056 12/08/2009,-26.0,1.0,89.0,21.0,95.0,95.0,97.0,-51.0,2.0,48.0,-58.0,188.0,120.0,133.0,1.0,68.0,128.0,121.0,103.0,104.0,29.0,-219.0,-203.0,-231.0,-210.0,-127.0,-84.0,-91.0,-153.0,-92.0,-75.0,-18.0,26.0,4.0,49.0,5.0,-16.0,-103.0,-39.0,-7.0,-12.0,28.0,15.0,72.0,31.0,79.0,49.0,22.0,16.0,71.0,60.0,80.0,69.0,15.0,11.0,30.0,31.0,18.0,-7.0,8.0,22.0,1.0,40.0,35.0,0.0
16:15:01.063 12/08/2009,-84.0,-70.0,14.0,-64.0,6.0,-8.0,-16.0,-115.0,-72.0,-33.0,-83.0,116.0,50.0,26.0,-64.0,-4.0,56.0,42.0,31.0,43.0,-34.0,-305.0,-296.0,-308.0,-271.0,-207.0,-180.0,-179.0,-204.0,-174.0,-150.0,-103.0,-63.0,-99.0,-62.0,-91.0,-88.0,-174.0,-108.0,-76.0,-75.0,19.0,-42.0,23.0,-11.0,42.0,-17.0,1.0,-15.0,30.0,24.0,52.0,41.0,-1.0,-6.0,-42.0,5.0,-3.0,-24.0,3.0,-10.0,-30.0,32.0,10.0,0.0
16:15:01.069 12/08/2009,-84.0,-70.0,-1.0,-78.0,-7.0,-6.0,-5.0,-91.0,-44.0,-20.0,-74.0,125.0,82.0,58.0,-29.0,42.0,92.0,74.0,78.0,93.0,23.0,-266.0,-239.0,-268.0,-221.0,-147.0,-127.0,-129.0,-166.0,-105.0,-83.0,-31.0,6.0,-30.0,9.0,-29.0,-43.0,-130.0,-22.0,-32.0,-6.0,55.0,31.0,80.0,62.0,108.0,76.0,65.0,62.0,116.0,101.0,120.0,107.0,49.0,53.0,68.0,84.0,70.0,27.0,39.0,86.0,58.0,76.0,43.0,0.0
16:15:01.075 12/08/2009,-13.0,21.0,73.0,-16.0,67.0,48.0,34.0,-31.0,37.0,39.0,-94.0,174.0,117.0,82.0,-6.0,79.0,118.0,90.0,81.0,93.0,24.0,-302.0,-262.0,-274.0,-217.0,-153.0,-137.0,-138.0,-215.0,-128.0,-109.0,-54.0,-17.0,-54.0,-18.0,-56.0,-61.0,-157.0,-77.0,-61.0,-78.0,17.0,-23.0,26.0,-13.0,42.0,3.0,14.0,1.0,43.0,24.0,38.0,31.0,-16.0,-11.0,-11.0,8.0,-7.0,-36.0,3.0,-18.0,-21.0,33.0,15.0,0.0
16:15:01.081 12/08/2009,-51.0,-43.0,3.0,-86.0,-7.0,-13.0,-30.0,-84.0,-16.0,-30.0,-82.0,98.0,43.0,30.0,-54.0,20.0,53.0,20.0,18.0,23.0,-44.0,-295.0,-293.0,-293.0,-232.0,-196.0,-168.0,-162.0,-275.0,-163.0,-134.0,-68.0,-34.0,-70.0,-32.0,-61.0,-62.0,-169.0,-81.0,-51.0,-34.0,25.0,-25.0,25.0,13.0,42.0,21.0,33.0,12.0,49.0,37.0,53.0,44.0,-5.0,-5.0,32.0,34.0,14.0,-3.0,16.0,26.0,-2.0,46.0,-1.0,0.0
16:15:01.088 12/08/2009,-49.0,17.0,74.0,-5.0,72.0,62.0,50.0,-38.0,45.0,43.0,-55.0,171.0,107.0,99.0,20.0,90.0,123.0,92.0,87.0,93.0,16.0,-248.0,-210.0,-261.0,-154.0,-76.0,-68.0,-92.0,-122.0,-56.0,-40.0,16.0,56.0,20.0,54.0,12.0,9.0,-74.0,5.0,8.0,35.0,77.0,59.0,82.0,65.0,82.0,96.0,52.0,29.0,80.0,60.0,78.0,68.0,16.0,4.0,73.0,57.0,17.0,1.0,8.0,55.0,28.0,43.0,45.0,0.0
16:15:01.094 12/08/2009,-15.0,28.0,78.0,-13.0,62.0,45.0,26.0,-45.0,39.0,31.0,-89.0,152.0,68.0,62.0,4.0,56.0,84.0,50.0,38.0,44.0,-28.0,-213.0,-252.0,-281.0,-212.0,-181.0,-134.0,-156.0,-215.0,-127.0,-81.0,-42.0,-12.0,-49.0,-19.0,-60.0,-72.0,-190.0,-76.0,-60.0,-29.0,13.0,-8.0,8.0,32.0,26.0,34.0,33.0,-9.0,21.0,-8.0,12.0,12.0,-32.0,-56.0,26.0,18.0,-46.0,-54.0,-30.0,26.0,-13.0,14.0,15.0,0.0
16:15:01.100 12/08/2009,-67.0,-26.0,20.0,-78.0,1.0,-11.0,-32.0,-84.0,-7.0,-16.0,-69.0,93.0,24.0,30.0,-29.0,25.0,49.0,13.0,6.0,7.0,-47.0,-282.0,-294.0,-328.0,-265.0,-164.0,-156.0,-188.0,-225.0,-145.0,-81.0,-35.0,-12.0,-58.0,-23.0,-65.0,-68.0,-155.0,-67.0,-40.0,-1.0,40.0,33.0,39.0,74.0,23.0,68.0,48.0,21.0,60.0,28.0,50.0,42.0,-2.0,6.0,48.0,46.0,4.0,-5.0,20.0,24.0,4.0,60.0,29.0,0.0
16:15:01.106 12/08/2009,7.0,44.0,75.0,-14.0,57.0,43.0,38.0,6.0,65.0,45.0,-109.0,149.0,92.0,93.0,54.0,100.0,120.0,85.0,71.0,79.0,14.0,-203.0,-225.0,-269.0,-163.0,-126.0,-105.0,-140.0,-197.0,-73.0,-61.0,9.0,24.0,-22.0,10.0,-41.0,-48.0,-135.0,-11.0,-35.0,27.0,41.0,45.0,40.0,76.0,30.0,79.0,50.0,17.0,56.0,30.0,39.0,29.0,-35.0,-34.0,36.0,33.0,-18.0,-48.0,-24.0,9.0,-22.0,0.0,1.0,0.0
16:15:01.113 12/08/2009,-36.0,3.0,34.0,-67.0,-14.0,-38.0,-37.0,-61.0,1.0,-19.0,-93.0,83.0,-23.0,-12.0,-18.0,24.0,49.0,13.0,-10.0,-17.0,-82.0,-317.0,-303.0,-333.0,-336.0,-193.0,-167.0,-196.0,-247.0,-142.0,-87.0,-33.0,-21.0,-71.0,-40.0,-79.0,-85.0,-188.0,-69.0,-90.0,-42.0,-21.0,-10.0,-11.0,22.0,-22.0,27.0,32.0,-16.0,32.0,13.0,28.0,16.0,-38.0,-41.0,7.0,20.0,-15.0,-13.0,23.0,16.0,4.0,64.0,37.0,0.0
16:15:01.119 12/08/2009,-34.0,9.0,55.0,-33.0,14.0,-11.0,-2.0,-51.0,23.0,19.0,-52.0,109.0,6.0,14.0,5.0,70.0,97.0,67.0,40.0,31.0,-27.0,-218.0,-225.0,-249.0,-225.0,-99.0,-88.0,-110.0,-162.0,-67.0,-29.0,22.0,56.0,12.0,47.0,12.0,4.0,-95.0,-1.0,-17.0,26.0,49.0,67.0,54.0,82.0,39.0,110.0,77.0,46.0,101.0,74.0,98.0,77.0,14.0,2.0,109.0,97.0,48.0,27.0,34.0,97.0,55.0,67.0,59.0,0.0
16:15:01.125 12/08/2009,29.0,81.0,129.0,46.0,88.0,52.0,56.0,4.0,84.0,84.0,-54.0,171.0,58.0,63.0,59.0,111.0,143.0,107.0,81.0,59.0,-8.0,-196.0,-172.0,-214.0,-133.0,-61.0,-51.0,-90.0,-186.0,-65.0,-17.0,46.0,73.0,29.0,56.0,16.0,7.0,-122.0,-18.0,-55.0,-2.0,10.0,31.0,10.0,50.0,12.0,54.0,42.0,-6.0,49.0,13.0,25.0,12.0,-39.0,-41.0,17.0,25.0,-39.0,-52.0,-16.0,-12.0,-34.0,2.0,-14.0,0.0
16:15:01.131 12/08/2009,-45.0,14.0,67.0,-7.0,22.0,3.0,-6.0,-81.0,-8.0,0.0,-41.0,101.0,-30.0,-18.0,-41.0,20.0,53.0,21.0,-11.0,-36.0,-93.0,-195.0,-214.0,-244.0,-174.0,-121.0,-82.0,-105.0,-160.0,-105.0,-50.0,4.0,43.0,3.0,41.0,-10.0,-19.0,-141.0,-53.0,-68.0,-25.0,5.0,17.0,11.0,46.0,8.0,48.0,46.0,3.0,51.0,29.0,29.0,11.0,-36.0,-31.0,34.0,55.0,-1.0,-27.0,10.0,44.0,29.0,62.0,100.0,0.0
16:15:01.138 12/08/2009,-5.0,29.0,94.0,30.0,64.0,41.0,33.0,-38.0,27.0,45.0,-54.0,147.0,33.0,42.0,27.0,89.0,119.0,87.0,59.0,38.0,-20.0,-159.0,-166.0,-199.0,-98.0,-52.0,-33.0,-63.0,-113.0,-49.0,-13.0,42.0,82.0,40.0,80.0,17.0,7.0,-99.0,13.0,6.0,32.0,66.0,77.0,66.0,77.0,76.0,76.0,65.0,49.0,97.0,73.0,80.0,65.0,15.0,14.0,63.0,78.0,28.0,7.0,17.0,53.0,44.0,53.0,36.0,0.0
16:15:01.144 12/08/2009,-21.0,3.0,75.0,14.0,53.0,24.0,4.0,-71.0,-33.0,5.0,-85.0,138.0,38.0,37.0,-20.0,26.0,74.0,52.0,40.0,20.0,-37.0,-284.0,-239.0,-253.0,-283.0,-97.0,-106.0,-138.0,-214.0,-133.0,-81.0,-33.0,6.0,-32.0,-1.0,-55.0,-48.0,-185.0,-111.0,-56.0,-64.0,-27.0,-22.0,12.0,-3.0,21.0,11.0,13.0,-21.0,5.0,-11.0,7.0,0.0,-43.0,-45.0,17.0,20.0,-46.0,-50.0,-16.0,15.0,-18.0,15.0,46.0,0.0
16:15:01.150 12/08/2009,-37.0,-62.0,10.0,-56.0,3.0,-16.0,-25.0,-92.0,-74.0,-44.0,-80.0,110.0,37.0,37.0,-33.0,10.0,52.0,30.0,35.0,26.0,-33.0,-233.0,-257.0,-290.0,-192.0,-191.0,-129.0,-150.0,-210.0,-124.0,-92.0,-60.0,-19.0,-39.0,7.0,-44.0,-80.0,-147.0,-16.0,-7.0,-1.0,70.0,35.0,52.0,65.0,70.0,91.0,72.0,28.0,50.0,30.0,60.0,55.0,17.0,23.0,87.0,69.0,-4.0,4.0,23.0,36.0,-5.0,35.0,-13.0,0.0
16:15:01.156 12/08/2009,-87.0,-53.0,20.0,-39.0,32.0,20.0,28.0,-68.0,-44.0,-19.0,-119.0,136.0,93.0,91.0,-2.0,41.0,72.0,53.0,64.0,59.0,18.0,-236.0,-239.0,-265.0,-187.0,-159.0,-129.0,-128.0,-181.0,-91.0,-106.0,-61.0,-27.0,-48.0,1.0,-44.0,-62.0,-124.0,-16.0,-13.0,23.0,83.0,67.0,71.0,69.0,66.0,71.0,44.0,11.0,51.0,30.0,61.0,65.0,42.0,30.0,49.0,44.0,12.0,32.0,41.0,52.0,53.0,81.0,86.0,0.0
16:15:01.163 12/08/2009,-41.0,-37.0,15.0,-63.0,17.0,15.0,12.0,-50.0,-17.0,-24.0,-89.0,132.0,82.0,80.0,-1.0,44.0,62.0,34.0,48.0,42.0,-21.0,-260.0,-288.0,-320.0,-233.0,-192.0,-171.0,-175.0,-231.0,-134.0,-129.0,-93.0,-62.0,-87.0,-44.0,-80.0,-99.0,-185.0,-64.0,-49.0,-20.0,36.0,5.0,-16.0,43.0,4.0,30.0,46.0,-11.0,11.0,-16.0,4.0,5.0,-34.0,-45.0,3.0,-13.0,-51.0,-59.0,-11.0,-65.0,-86.0,-15.0,-20.0,0.0
16:15:01.169 12/08/2009,-51.0,-42.0,9.0,-79.0,2.0,3.0,-5.0,-53.0,-7.0,-21.0,-78.0,112.0,74.0,63.0,-13.0,48.0,68.0,41.0,51.0,45.0,-8.0,-220.0,-237.0,-287.0,-200.0,-150.0,-129.0,-137.0,-178.0,-69.0,-58.0,-22.0,3.0,-25.0,18.0,-32.0,-43.0,-139.0,12.0,2.0,62.0,52.0,86.0,89.0,126.0,98.0,91.0,73.0,79.0,117.0,87.0,114.0,100.0,42.0,30.0,82.0,89.0,69.0,45.0,50.0,64.0,59.0,88.0,77.0,0.0
16:15:01.175 12/08/2009,30.0,49.0,92.0,-4.0,72.0,53.0,35.0,26.0,89.0,59.0,-74.0,178.0,124.0,91.0,56.0,118.0,131.0,95.0,96.0,83.0,15.0,-244.0,-244.0,-276.0,-272.0,-122.0,-131.0,-148.0,-216.0,-96.0,-74.0,-32.0,-12.0,-43.0,-17.0,-63.0,-85.0,-167.0,-42.0,-43.0,-4.0,29.0,33.0,34.0,61.0,40.0,44.0,41.0,7.0,43.0,12.0,30.0,28.0,-29.0,-25.0,28.0,14.0,-20.0,-40.0,-8.0,2.0,-28.0,14.0,13.0,0.0
16:15:01.181 12/08/2009,-35.0,-21.0,29.0,-76.0,-7.0,-14.0,-26.0,-44.0,20.0,-12.0,-76.0,102.0,51.0,32.0,-10.0,47.0,63.0,27.0,25.0,17.0,-41.0,-238.0,-267.0,-308.0,-216.0,-175.0,-160.0,-169.0,-220.0,-93.0,-78.0,-54.0,-37.0,-72.0,-39.0,-81.0,-82.0,-166.0,-31.0,-41.0,10.0,25.0,24.0,38.0,63.0,50.0,50.0,46.0,23.0,53.0,18.0,41.0,40.0,-8.0,-8.0,54.0,41.0,0.0,-7.0,17.0,37.0,-1.0,54.0,35.0,0.0
16:15:01.188 12/08/2009,14.0,22.0,62.0,-32.0,33.0,30.0,26.0,14.0,68.0,36.0,-70.0,153.0,108.0,96.0,58.0,107.0,125.0,90.0,91.0,84.0,23.0,-180.0,-205.0,-247.0,-148.0,-96.0,-100.0,-114.0,-180.0,-39.0,-34.0,-20.0,9.0,-27.0,5.0,-41.0,-38.0,-118.0,14.0,2.0,63.0,77.0,77.0,84.0,99.0,94.0,63.0,51.0,49.0,94.0,59.0,79.0,81.0,27.0,29.0,51.0,59.0,31.0,14.0,44.0,29.0,29.0,77.0,55.0,0.0
16:15:01.194 12/08/2009,8.0,22.0,52.0,-55.0,14.0,-7.0,-3.0,-3.0,63.0,26.0,-93.0,140.0,73.0,56.0,29.0,82.0,107.0,78.0,69.0,59.0,-9.0,-280.0,-272.0,-309.0,-237.0,-166.0,-168.0,-200.0,-259.0,-106.0,-87.0,-70.0,-48.0,-91.0,-73.0,-125.0,-122.0,-213.0,-49.0,-64.0,-7.0,-6.0,18.0,12.0,29.0,4.0,15.0,26.0,-7.0,29.0,-3.0,7.0,8.0,-51.0,-52.0,5.0,14.0,-35.0,-53.0,-9.0,1.0,-31.0,3.0,-5.0,0.0
16:15:01.200 12/08/2009,-42.0,-35.0,8.0,-105.0,-48.0,-82.0,-84.0,-68.0,-1.0,-16.0,-73.0,81.0,-16.0,-19.0,-27.0,32.0,61.0,33.0,7.0,-9.0,-63.0,-252.0,-284.0,-317.0,-219.0,-157.0,-159.0,-192.0,-260.0,-76.0,-64.0,-63.0,-26.0,-58.0,-30.0,-73.0,-80.0,-173.0,-37.0,-65.0,9.0,27.0,62.0,65.0,70.0,33.0,56.0,49.0,37.0,79.0,45.0,55.0,45.0,-12.0,-6.0,53.0,67.0,22.0,-15.0,15.0,40.0,29.0,52.0,72.0,0.0
16:15:01.206 12/08/2009,95.0,72.0,108.0,1.0,52.0,3.0,4.0,50.0,111.0,83.0,-67.0,138.0,22.0,24.0,60.0,120.0,150.0,108.0,65.0,30.0,-35.0,-153.0,-195.0,-235.0,-99.0,-124.0,-84.0,-89.0,-134.0,-26.0,-31.0,-6.0,29.0,1.0,32.0,-16.0,-35.0,-112.0,69.0,-14.0,15.0,-20.0,81.0,62.0,60.0,7.0,55.0,64.0,25.0,76.0,36.0,37.0,21.0,-43.0,-45.0,44.0,45.0,5.0,-49.0,-25.0,43.0,18.0,21.0,34.0,0.0
16:15:01.213 12/08/2009,-49.0,-1.0,65.0,-28.0,26.0,-21.0,-23.0,-43.0,31.0,18.0,-67.0,93.0,-49.0,-26.0,-18.0,40.0,67.0,30.0,-16.0,-50.0,-109.0,-179.0,-227.0,-267.0,-194.0,-155.0,-127.0,-140.0,-197.0,-107.0,-86.0,-66.0,-21.0,-54.0,-18.0,-68.0,-80.0,-183.0,-44.0,-67.0,-62.0,-31.0,2.0,8.0,11.0,-42.0,-8.0,17.0,-30.0,11.0,-21.0,-14.0,-25.0,-74.0,-62.0,-13.0,-11.0,-45.0,-61.0,-13.0,-28.0,-39.0,11.0,12.0,0.0
16:15:01.219 12/08/2009,-25.0,-8.0,57.0,-33.0,18.0,-18.0,-29.0,-37.0,24.0,22.0,-44.0,109.0,-17.0,-3.0,-11.0,55.0,88.0,57.0,14.0,-16.0,-78.0,-176.0,-210.0,-247.0,-213.0,-99.0,-83.0,-82.0,-158.0,-53.0,-36.0,9.0,49.0,14.0,49.0,-7.0,-26.0,-110.0,18.0,-1.0,39.0,48.0,84.0,82.0,65.0,39.0,55.0,39.0,21.0,84.0,54.0,69.0,56.0,14.0,7.0,56.0,46.0,35.0,12.0,38.0,36.0,33.0,55.0,55.0,0.0
16:15:01.225 12/08/2009,16.0,46.0,117.0,34.0,84.0,56.0,39.0,-25.0,49.0,55.0,-71.0,161.0,60.0,55.0,3.0,72.0,110.0,81.0,50.0,29.0,-25.0,-183.0,-185.0,-228.0,-140.0,-114.0,-77.0,-100.0,-171.0,-79.0,-61.0,-11.0,29.0,-6.0,28.0,-27.0,-35.0,-135.0,-48.0,-32.0,-24.0,18.0,10.0,41.0,-4.0,-2.0,-9.0,-10.0,-45.0,16.0,-14.0,0.0,1.0,-54.0,-64.0,-38.0,-29.0,-39.0,-62.0,-23.0,-39.0,-28.0,15.0,31.0,0.0
16:15:01.231 12/08/2009,-80.0,-52.0,36.0,-40.0,28.0,2.0,-21.0,-120.0,-65.0,-33.0,-68.0,117.0,26.0,24.0,-94.0,-25.0,30.0,20.0,14.0,2.0,-54.0,-200.0,-254.0,-285.0,-270.0,-157.0,-118.0,-136.0,-231.0,-114.0,-77.0,-25.0,9.0,-21.0,12.0,-35.0,-60.0,-188.0,-62.0,-46.0,-26.0,30.0,12.0,48.0,19.0,26.0,10.0,7.0,-40.0,21.0,-1.0,33.0,31.0,-18.0,-32.0,4.0,1.0,-14.0,-33.0,0.0,8.0,-6.0,26.0,27.0,0.0
16:15:01.238 12/08/2009,-23.0,-10.0,100.0,30.0,88.0,59.0,36.0,-59.0,-32.0,31.0,-35.0,183.0,106.0,88.0,-17.0,47.0,95.0,96.0,92.0,72.0,22.0,-140.0,-173.0,-209.0,-133.0,-72.0,-50.0,-63.0,-150.0,-29.0,-8.0,34.0,79.0,56.0,83.0,20.0,-30.0,-93.0,19.0,13.0,25.0,71.0,90.0,93.0,77.0,64.0,88.0,68.0,32.0,88.0,55.0,86.0,78.0,17.0,-11.0,105.0,76.0,30.0,9.0,26.0,65.0,35.0,65.0,48.0,0.0
16:15:01.244 12/08/2009,-13.0,-4.0,116.0,41.0,107.0,68.0,38.0,-68.0,-33.0,38.0,-13.0,200.0,115.0,84.0,-44.0,26.0,84.0,89.0,90.0,69.0,-1.0,-185.0,-225.0,-266.0,-197.0,-114.0,-96.0,-121.0,-174.0,-92.0,-70.0,-31.0,26.0,-1.0,20.0,-34.0,-63.0,-163.0,-58.0,-51.0,-78.0,-6.0,8.0,33.0,-11.0,-11.0,-22.0,-4.0,-48.0,21.0,5.0,44.0,44.0,-15.0,-52.0,-30.0,-1.0,-14.0,-11.0,21.0,7.0,18.0,78.0,87.0,0.0
16:15:01.250 12/08/2009,-61.0,-39.0,62.0,-16.0,47.0,12.0,-21.0,-97.0,-49.0,5.0,8.0,167.0,86.0,44.0,-62.0,17.0,71.0,77.0,71.0,53.0,-20.0,-235.0,-224.0,-256.0,-206.0,-61.0,-85.0,-120.0,-168.0,-57.0,-22.0,22.0,57.0,21.0,44.0,-21.0,-44.0,-144.0,10.0,-22.0,32.0,25.0,55.0,65.0,71.0,36.0,62.0,53.0,26.0,99.0,79.0,108.0,99.0,36.0,0.0,59.0,72.0,61.0,41.0,45.0,56.0,56.0,102.0,29.0,0.0
16:15:01.256 12/08/2009,54.0,80.0,164.0,69.0,130.0,89.0,54.0,34.0,84.0,117.0,27.0,243.0,144.0,110.0,58.0,112.0,162.0,161.0,136.0,110.0,36.0,-90.0,-146.0,-194.0,-143.0,-65.0,-37.0,-65.0,-124.0,-29.0,19.0,68.0,96.0,62.0,82.0,18.0,-15.0,-109.0,27.0,8.0,46.0,108.0,68.0,75.0,74.0,29.0,45.0,40.0,12.0,87.0,72.0,93.0,73.0,-12.0,-31.0,33.0,37.0,32.0,-16.0,-8.0,22.0,1.0,27.0,39.0,0.0
16:15:01.263 12/08/2009,3.0,35.0,110.0,22.0,88.0,48.0,29.0,-32.0,26.0,51.0,2.0,194.0,96.0,87.0,-24.0,46.0,97.0,100.0,86.0,59.0,-16.0,-159.0,-204.0,-246.0,-161.0,-116.0,-95.0,-127.0,-181.0,-79.0,-68.0,-9.0,32.0,1.0,24.0,-33.0,-64.0,-174.0,-55.0,-42.0,-19.0,-31.0,4.0,16.0,14.0,11.0,4.0,10.0,-25.0,46.0,41.0,63.0,49.0,-19.0,-36.0,-20.0,-12.0,10.0,-25.0,12.0,-19.0,-17.0,49.0,5.0,0.0
16:15:01.269 12/08/2009,32.0,36.0,111.0,17.0,74.0,27.0,-14.0,-12.0,53.0,61.0,23.0,188.0,91.0,38.0,2.0,83.0,128.0,124.0,105.0,79.0,-12.0,-148.0,-193.0,-233.0,-134.0,-74.0,-56.0,-108.0,-183.0,-41.0,-10.0,50.0,90.0,58.0,74.0,6.0,-25.0,-134.0,51.0,-21.0,63.0,61.0,59.0,88.0,84.0,67.0,82.0,56.0,50.0,121.0,107.0,114.0,95.0,29.0,2.0,66.0,56.0,63.0,10.0,12.0,56.0,47.0,63.0,49.0,0.0
16:15:01.275 12/08/2009,-8.0,63.0,150.0,65.0,125.0,76.0,37.0,-5.0,80.0,90.0,-6.0,217.0,128.0,76.0,26.0,96.0,143.0,135.0,112.0,90.0,26.0,-188.0,-185.0,-226.0,-222.0,-49.0,-60.0,-99.0,-176.0,-60.0,-23.0,26.0,70.0,33.0,56.0,-13.0,-51.0,-164.0,3.0,-43.0,17.0,7.0,22.0,50.0,41.0,29.0,17.0,20.0,-13.0,60.0,39.0,56.0,42.0,-15.0,-45.0,-15.0,-11.0,-5.0,-38.0,-2.0,-37.0,-36.0,27.0,-8.0,0.0
16:15:01.281 12/08/2009,-31.0,8.0,76.0,-14.0,41.0,-3.0,-31.0,-46.0,16.0,17.0,-17.0,142.0,52.0,8.0,-33.0,37.0,74.0,65.0,52.0,15.0,-42.0,-206.0,-232.0,-266.0,-214.0,-108.0,-93.0,-127.0,-188.0,-94.0,-49.0,-4.0,31.0,-4.0,21.0,-42.0,-67.0,-160.0,-21.0,-8.0,2.0,4.0,15.0,28.0,41.0,12.0,31.0,34.0,7.0,68.0,42.0,69.0,56.0,5.0,-14.0,17.0,39.0,29.0,4.0,35.0,16.0,9.0,82.0,50.0,0.0
16:15:01.288 12/08/2009,14.0,55.0,125.0,43.0,89.0,37.0,27.0,24.0,82.0,82.0,-22.0,190.0,83.0,56.0,39.0,120.0,144.0,128.0,108.0,70.0,19.0,-113.0,-137.0,-180.0,-110.0,-58.0,-21.0,-49.0,-110.0,-14.0,13.0,56.0,93.0,67.0,91.0,16.0,0.0,-90.0,49.0,33.0,72.0,61.0,78.0,78.0,99.0,43.0,97.0,84.0,68.0,123.0,71.0,81.0,63.0,-2.0,-20.0,69.0,95.0,42.0,-14.0,3.0,41.0,16.0,49.0,8.0,0.0
16:15:01.294 12/08/2009,30.0,63.0,132.0,43.0,68.0,1.0,11.0,29.0,82.0,71.0,-38.0,146.0,8.0,5.0,32.0,97.0,104.0,74.0,31.0,-15.0,-65.0,-106.0,-158.0,-203.0,-140.0,-79.0,-57.0,-81.0,-159.0,-61.0,-36.0,6.0,41.0,10.0,30.0,-34.0,-41.0,-133.0,-21.0,-22.0,5.0,-10.0,18.0,27.0,41.0,-41.0,31.0,39.0,10.0,37.0,-11.0,-6.0,-28.0,-77.0,-94.0,1.0,26.0,-32.0,-82.0,-41.0,-18.0,-36.0,11.0,10.0,0.0
16:15:01.300 12/08/2009,-22.0,5.0,72.0,-15.0,11.0,-51.0,-39.0,-34.0,18.0,9.0,-44.0,88.0,-36.0,-36.0,-16.0,49.0,62.0,29.0,-7.0,-55.0,-99.0,-89.0,-183.0,-221.0,-142.0,-90.0,-73.0,-98.0,-152.0,-55.0,-31.0,9.0,40.0,1.0,29.0,-39.0,-53.0,-142.0,-1.0,-10.0,21.0,13.0,36.0,32.0,73.0,-14.0,72.0,72.0,39.0,76.0,30.0,42.0,22.0,-22.0,-23.0,66.0,84.0,22.0,-14.0,21.0,53.0,41.0,76.0,63.0,0.0
16:15:01.306 12/08/2009,44.0,68.0,136.0,53.0,90.0,32.0,36.0,51.0,85.0,74.0,-40.0,158.0,54.0,41.0,63.0,112.0,125.0,96.0,73.0,34.0,-2.0,-71.0,-127.0,-180.0,-77.0,-37.0,-26.0,-53.0,-108.0,-18.0,18.0,42.0,79.0,45.0,69.0,9.0,-22.0,-107.0,23.0,13.0,33.0,24.0,55.0,53.0,49.0,1.0,74.0,45.0,8.0,44.0,9.0,25.0,12.0,-37.0,-61.0,40.0,34.0,-14.0,-46.0,-22.0,17.0,7.0,42.0,43.0,0.0
16:15:01.313 12/08/2009,-32.0,-5.0,62.0,-12.0,35.0,-12.0,-31.0,-44.0,-14.0,-14.0,-45.0,84.0,9.0,-9.0,-34.0,14.0,44.0,21.0,7.0,-22.0,-66.0,-185.0,-213.0,-267.0,-163.0,-114.0,-115.0,-147.0,-193.0,-96.0,-93.0,-50.0,-3.0,-34.0,-14.0,-72.0,-106.0,-194.0,-53.0,-30.0,-37.0,-4.0,-8.0,25.0,6.0,-14.0,31.0,45.0,-16.0,16.0,-13.0,13.0,1.0,-41.0,-56.0,47.0,37.0,-19.0,-34.0,1.0,31.0,-2.0,60.0,7.0,0.0
16:15:01.319 12/08/2009,-54.0,-34.0,42.0,-38.0,21.0,-16.0,-26.0,-36.0,-4.0,10.0,-32.0,116.0,49.0,27.0,12.0,68.0,99.0,81.0,60.0,35.0,1.0,-149.0,-209.0,-274.0,-180.0,-125.0,-111.0,-130.0,-181.0,-86.0,-75.0,-41.0,7.0,-13.0,10.0,-46.0,-74.0,-150.0,-31.0,-1.0,-2.0,55.0,18.0,90.0,38.0,58.0,78.0,87.0,41.0,93.0,60.0,82.0,71.0,17.0,-8.0,78.0,76.0,37.0,14.0,25.0,40.0,58.0,91.0,98.0,0.0
16:15:01.325 12/08/2009,-52.0,-37.0,53.0,-21.0,48.0,7.0,6.0,-59.0,-22.0,13.0,-61.0,134.0,72.0,49.0,-37.0,30.0,80.0,79.0,62.0,39.0,17.0,-229.0,-218.0,-274.0,-219.0,-112.0,-122.0,-144.0,-187.0,-110.0,-112.0,-78.0,-26.0,-46.0,-29.0,-80.0,-100.0,-163.0,-85.0,-37.0,-72.0,32.0,-24.0,66.0,-41.0,25.0,-27.0,-30.0,-56.0,2.0,-17.0,11.0,1.0,-45.0,-56.0,-61.0,-33.0,-49.0,-79.0,-41.0,-68.0,-67.0,-10.0,-18.0,0.0
16:15:01.331 12/08/2009,-139.0,-121.0,-22.0,-95.0,-39.0,-72.0,-67.0,-138.0,-120.0,-71.0,-76.0,59.0,-9.0,-24.0,-113.0,-49.0,3.0,1.0,-9.0,-30.0,-59.0,-174.0,-282.0,-324.0,-318.0,-209.0,-185.0,-195.0,-271.0,-188.0,-155.0,-125.0,-72.0,-97.0,-73.0,-120.0,-139.0,-215.0,-116.0,-64.0,-83.0,12.0,-39.0,42.0,-44.0,1.0,-34.0,-24.0,-53.0,3.0,-16.0,15.0,3.0,-38.0,-43.0,-70.0,-24.0,-27.0,-50.0,-15.0,-50.0,-41.0,31.0,4.0,0.0
16:15:01.338 12/08/2009,-98.0,-82.0,14.0,-59.0,-3.0,-25.0,-22.0,-74.0,-53.0,-17.0,-77.0,97.0,49.0,36.0,-55.0,12.0,62.0,56.0,46.0,31.0,15.0,-89.0,-193.0,-235.0,-145.0,-144.0,-107.0,-120.0,-142.0,-115.0,-101.0,-63.0,-1.0,-28.0,-2.0,-53.0,-65.0,-127.0,-39.0,14.0,-10.0,68.0,26.0,92.0,7.0,53.0,21.0,-2.0,-10.0,53.0,24.0,53.0,46.0,-2.0,-11.0,-2.0,26.0,10.0,-16.0,6.0,-24.0,-13.0,45.0,28.0,0.0
16:15:01.344 12/08/2009,-55.0,-43.0,36.0,-36.0,16.0,-10.0,-12.0,-41.0,-31.0,-16.0,-87.0,97.0,30.0,14.0,-51.0,11.0,50.0,34.0,18.0,5.0,-16.0,-107.0,-211.0,-265.0,-249.0,-141.0,-118.0,-142.0,-218.0,-126.0,-90.0,-62.0,-10.0,-44.0,-19.0,-61.0,-61.0,-179.0,-70.0,-36.0,-43.0,-30.0,-30.0,29.0,-10.0,-9.0,-10.0,-13.0,-57.0,-22.0,-40.0,-7.0,-16.0,-59.0,-77.0,-30.0,-33.0,-59.0,-79.0,-47.0,-50.0,-53.0,15.0,-12.0,0.0
16:15:01.350 12/08/2009,-50.0,-45.0,15.0,-70.0,-16.0,-51.0,-56.0,-40.0,-27.0,-36.0,-63.0,62.0,-16.0,-29.0,-57.0,-8.0,22.0,3.0,-8.0,-29.0,-54.0,-140.0,-237.0,-280.0,-231.0,-155.0,-138.0,-150.0,-212.0,-126.0,-80.0,-52.0,-14.0,-43.0,-17.0,-60.0,-88.0,-164.0,-56.0,-20.0,-5.0,33.0,24.0,48.0,33.0,19.0,64.0,44.0,5.0,33.0,6.0,42.0,29.0,-20.0,-44.0,44.0,31.0,-1.0,-22.0,-3.0,20.0,28.0,61.0,84.0,0.0
16:15:01.356 12/08/2009,-20.0,10.0,76.0,-8.0,59.0,25.0,19.0,18.0,41.0,39.0,-83.0,133.0,65.0,44.0,1.0,54.0,92.0,76.0,58.0,41.0,11.0,-107.0,-174.0,-222.0,-152.0,-86.0,-93.0,-97.0,-117.0,-69.0,-37.0,-26.0,20.0,-4.0,13.0,-27.0,-67.0,-121.0,14.0,-7.0,21.0,32.0,29.0,66.0,29.0,15.0,27.0,3.0,-23.0,17.0,-11.0,24.0,14.0,-41.0,-61.0,-32.0,-15.0,-36.0,-50.0,-7.0,-55.0,-40.0,28.0,-23.0,0.0
16:15:01.363 12/08/2009,-77.0,-32.0,34.0,-49.0,5.0,-34.0,-49.0,-46.0,-15.0,-27.0,-93.0,71.0,-12.0,-31.0,-61.0,-17.0,18.0,-1.0,-21.0,-42.0,-75.0,-132.0,-252.0,-299.0,-181.0,-169.0,-159.0,-159.0,-218.0,-137.0,-118.0,-98.0,-39.0,-59.0,-42.0,-91.0,-127.0,-185.0,-53.0,-58.0,-52.0,-30.0,-32.0,3.0,-36.0,-56.0,-30.0,-26.0,-59.0,-26.0,-52.0,-20.0,-29.0,-77.0,-94.0,-55.0,-42.0,-60.0,-71.0,-26.0,-59.0,-54.0,25.0,-15.0,0.0
16:15:01.369 12/08/2009,-60.0,-25.0,48.0,-31.0,21.0,-8.0,-33.0,-34.0,10.0,1.0,-56.0,87.0,21.0,-2.0,-34.0,22.0,59.0,41.0,20.0,1.0,-19.0,-98.0,-196.0,-213.0,-133.0,-90.0,-88.0,-81.0,-191.0,-69.0,-61.0,-13.0,37.0,15.0,34.0,-17.0,-60.0,-154.0,0.0,-29.0,8.0,31.0,16.0,62.0,27.0,41.0,67.0,44.0,18.0,64.0,34.0,79.0,61.0,6.0,-16.0,61.0,53.0,32.0,20.0,40.0,51.0,55.0,90.0,83.0,0.0
16:15:01.375 12/08/2009,0.0,47.0,112.0,33.0,83.0,37.0,-4.0,14.0,60.0,59.0,-47.0,151.0,74.0,32.0,16.0,69.0,112.0,90.0,76.0,50.0,7.0,-106.0,-186.0,-246.0,-161.0,-77.0,-76.0,-101.0,-134.0,-77.0,-36.0,1.0,45.0,18.0,23.0,-41.0,-86.0,-157.0,-42.0,-58.0,-25.0,-6.0,-8.0,32.0,-13.0,-9.0,35.0,28.0,-6.0,40.0,11.0,34.0,19.0,-53.0,-81.0,1.0,14.0,-12.0,-41.0,-24.0,-22.0,-30.0,27.0,-39.0,0.0
16:15:01.381 12/08/2009,-70.0,-15.0,56.0,-29.0,11.0,-45.0,-80.0,-62.0,-10.0,-8.0,-22.0,65.0,-34.0,-54.0,-53.0,8.0,45.0,20.0,-5.0,-39.0,-74.0,-112.0,-232.0,-263.0,-199.0,-147.0,-124.0,-150.0,-185.0,-118.0,-90.0,-54.0,-3.0,-15.0,-9.0,-65.0,-100.0,-191.0,-61.0,-76.0,-43.0,-25.0,-36.0,25.0,4.0,-10.0,35.0,44.0,13.0,68.0,42.0,55.0,38.0,-21.0,-44.0,15.0,42.0,42.0,25.0,44.0,36.0,83.0,147.0,123.0,0.0
16:15:01.388 12/08/2009,-18.0,45.0,118.0,27.0,62.0,5.0,-10.0,17.0,77.0,79.0,-7.0,129.0,14.0,22.0,15.0,99.0,133.0,98.0,62.0,26.0,-1.0,-96.0,-175.0,-215.0,-152.0,-77.0,-60.0,-87.0,-156.0,-59.0,-36.0,6.0,59.0,48.0,59.0,2.0,-32.0,-124.0,-6.0,-23.0,15.0,102.0,29.0,69.0,32.0,7.0,53.0,15.0,2.0,67.0,37.0,54.0,29.0,-27.0,-52.0,-19.0,-8.0,-5.0,-42.0,-21.0,-59.0,-72.0,-4.0,-39.0,0.0
16:15:01.394 12/08/2009,-21.0,40.0,115.0,42.0,83.0,41.0,31.0,-3.0,51.0,57.0,-49.0,135.0,38.0,49.0,-16.0,53.0,87.0,68.0,39.0,6.0,-8.0,-80.0,-178.0,-220.0,-169.0,-103.0,-76.0,-96.0,-149.0,-87.0,-71.0,-31.0,27.0,19.0,36.0,-13.0,-44.0,-129.0,-67.0,-62.0,-37.0,-44.0,-20.0,43.0,-5.0,-7.0,14.0,-5.0,-58.0,-4.0,-22.0,-8.0,-13.0,-62.0,-70.0,-46.0,-57.0,-58.0,-79.0,-16.0,-67.0,-53.0,14.0,-16.0,0.0
16:15:01.400 12/08/2009,-83.0,-25.0,53.0,-10.0,46.0,22.0,-14.0,-64.0,-21.0,-4.0,-24.0,108.0,31.0,0.0,-71.0,-3.0,43.0,32.0,22.0,-7.0,-24.0,-89.0,-194.0,-227.0,-162.0,-121.0,-92.0,-88.0,-134.0,-90.0,-71.0,-41.0,22.0,16.0,43.0,9.0,-11.0,-96.0,-33.0,18.0,-42.0,42.0,23.0,77.0,2.0,37.0,26.0,10.0,-25.0,50.0,38.0,69.0,54.0,1.0,-31.0,1.0,11.0,15.0,-4.0,15.0,7.0,13.0,61.0,51.0,0.0
16:15:01.406 12/08/2009,-20.0,29.0,117.0,52.0,118.0,103.0,81.0,-12.0,20.0,59.0,-39.0,186.0,136.0,101.0,-13.0,53.0,109.0,111.0,106.0,85.0,55.0,-81.0,-161.0,-190.0,-191.0,-82.0,-62.0,-54.0,-100.0,-63.0,-29.0,-3.0,43.0,35.0,54.0,24.0,7.0,-75.0,-20.0,12.0,-8.0,53.0,-11.0,69.0,-11.0,38.0,10.0,-20.0,-40.0,26.0,16.0,45.0,36.0,-27.0,-59.0,-48.0,-43.0,-29.0,-55.0,-34.0,-72.0,-61.0,-8.0,-29.0,0.0
16:15:01.413 12/08/2009,-72.0,-24.0,67.0,-1.0,62.0,46.0,22.0,-73.0,-48.0,-2.0,-35.0,135.0,75.0,30.0,-81.0,-19.0,46.0,44.0,46.0,22.0,-6.0,-150.0,-224.0,-260.0,-273.0,-150.0,-110.0,-118.0,-174.0,-125.0,-68.0,-43.0,3.0,-6.0,5.0,-28.0,-48.0,-157.0,-69.0,-59.0,-58.0,-45.0,-69.0,25.0,-42.0,-3.0,-31.0,-30.0,-61.0,-3.0,-14.0,15.0,14.0,-48.0,-79.0,-69.0,-52.0,-42.0,-53.0,-20.0,-62.0,-59.0,23.0,-24.0,0.0
16:15:01.419 12/08/2009,-69.0,-31.0,66.0,4.0,58.0,28.0,4.0,-60.0,-21.0,15.0,-4.0,137.0,72.0,41.0,-43.0,29.0,84.0,76.0,70.0,46.0,14.0,-84.0,-182.0,-208.0,-177.0,-95.0,-74.0,-68.0,-122.0,-74.0,-29.0,-20.0,43.0,37.0,53.0,4.0,-20.0,-114.0,-8.0,4.0,-20.0,48.0,7.0,65.0,11.0,55.0,51.0,28.0,22.0,86.0,62.0,96.0,90.0,26.0,-2.0,24.0,40.0,46.0,24.0,38.0,21.0,27.0,80.0,37.0,0.0
16:15:01.425 12/08/2009,-16.0,11.0,96.0,35.0,91.0,57.0,32.0,24.0,35.0,63.0,-30.0,165.0,103.0,71.0,21.0,80.0,125.0,108.0,102.0,72.0,32.0,-120.0,-179.0,-214.0,-142.0,-80.0,-83.0,-91.0,-155.0,-65.0,-57.0,-30.0,29.0,14.0,32.0,-16.0,-40.0,-131.0,-25.0,-52.0,-37.0,7.0,-24.0,41.0,2.0,30.0,37.0,31.0,-1.0,48.0,21.0,50.0,45.0,-14.0,-35.0,-12.0,8.0,-7.0,-15.0,33.0,-14.0,-11.0,57.0,6.0,0.0
16:15:01.431 12/08/2009,-64.0,-35.0,50.0,-23.0,32.0,6.0,-24.0,-44.0,-15.0,5.0,-13.0,119.0,55.0,6.0,-51.0,20.0,65.0,49.0,51.0,20.0,-17.0,-163.0,-238.0,-268.0,-172.0,-121.0,-115.0,-123.0,-196.0,-115.0,-79.0,-48.0,5.0,-3.0,13.0,-40.0,-72.0,-158.0,-51.0,-69.0,-33.0,1.0,-40.0,32.0,-5.0,26.0,29.0,42.0,6.0,58.0,35.0,79.0,78.0,20.0,-13.0,11.0,29.0,27.0,37.0,57.0,18.0,35.0,103.0,42.0,0.0
16:15:01.438 12/08/2009,-19.0,31.0,112.0,50.0,106.0,70.0,33.0,-1.0,58.0,77.0,17.0,193.0,130.0,76.0,18.0,97.0,144.0,135.0,133.0,101.0,46.0,-24.0,-135.0,-176.0,-77.0,-46.0,-39.0,-49.0,-88.0,-20.0,2.0,39.0,84.0,71.0,89.0,29.0,-18.0,-108.0,18.0,-27.0,23.0,43.0,23.0,80.0,17.0,53.0,72.0,51.0,46.0,111.0,80.0,116.0,99.0,33.0,-12.0,33.0,60.0,49.0,29.0,39.0,40.0,41.0,78.0,22.0,0.0
16:15:01.444 12/08/2009,-6.0,44.0,105.0,30.0,86.0,55.0,16.0,-10.0,48.0,57.0,-24.0,164.0,93.0,32.0,-17.0,56.0,105.0,91.0,80.0,53.0,-11.0,-128.0,-210.0,-260.0,-172.0,-94.0,-120.0,-126.0,-192.0,-91.0,-57.0,-31.0,6.0,-21.0,-5.0,-59.0,-95.0,-187.0,-55.0,-107.0,-34.0,-42.0,-43.0,1.0,-30.0,-36.0,18.0,23.0,-21.0,23.0,-7.0,20.0,10.0,-61.0,-105.0,-16.0,4.0,-31.0,-56.0,-25.0,-10.0,-29.0,33.0,-6.0,0.0
16:15:01.450 12/08/2009,-43.0,-4.0,52.0,-30.0,19.0,-20.0,-53.0,-23.0,26.0,24.0,-20.0,109.0,27.0,-27.0,-9.0,55.0,87.0,55.0,37.0,6.0,-49.0,-99.0,-225.0,-268.0,-157.0,-143.0,-116.0,-142.0,-194.0,-83.0,-61.0,-31.0,9.0,-6.0,5.0,-50.0,-69.0,-191.0,-24.0,-122.0,15.0,-20.0,8.0,48.0,-82.0,2.0,21.0,8.0,-13.0,43.0,10.0,36.0,29.0,-32.0,-69.0,-63.0,-14.0,-21.0,-39.0,-26.0,-55.0,-32.0,27.0,10.0,0.0
16:15:01.456 12/08/2009,-1.0,44.0,92.0,15.0,68.0,26.0,-12.0,3.0,62.0,61.0,-70.0,144.0,79.0,33.0,4.0,72.0,107.0,82.0,72.0,42.0,14.0,-112.0,-196.0,-237.0,-150.0,-126.0,-95.0,-103.0,-175.0,-49.0,-35.0,-10.0,30.0,10.0,26.0,-32.0,-100.0,-154.0,-15.0,-76.0,13.0,8.0,25.0,69.0,-635.0,16.0,70.0,54.0,14.0,46.0,4.0,20.0,15.0,-48.0,-79.0,117.0,69.0,-26.0,-56.0,-51.0,81.0,6.0,19.0,-37.0,0.0
16:15:01.463 12/08/2009,-43.0,-8.0,37.0,-41.0,12.0,-33.0,-63.0,-36.0,9.0,4.0,-62.0,91.0,6.0,-32.0,-30.0,21.0,53.0,25.0,5.0,-24.0,-78.0,-179.0,-268.0,-310.0,-262.0,-173.0,-175.0,-186.0,-243.0,-138.0,-111.0,-99.0,-53.0,-72.0,-59.0,-117.0,-166.0,-242.0,-96.0,-134.0,-45.0,-48.0,-49.0,10.0,-552.0,-38.0,-39.0,-32.0,-73.0,-17.0,-42.0,-20.0,-25.0,-75.0,-101.0,-108.0,-46.0,-58.0,-67.0,-52.0,-70.0,-13.0,47.0,73.0,0.0
16:15:01.469 12/08/2009,-19.0,-17.0,32.0,-49.0,-8.0,-54.0,-62.0,-21.0,11.0,7.0,-53.0,80.0,-1.0,-26.0,-37.0,36.0,74.0,50.0,32.0,2.0,-35.0,-121.0,-208.0,-242.0,-175.0,-115.0,-103.0,-94.0,-146.0,-63.0,-35.0,-17.0,29.0,-2.0,25.0,-30.0,-56.0,-110.0,21.0,-35.0,32.0,39.0,26.0,87.0,-572.0,42.0,52.0,44.0,5.0,50.0,24.0,40.0,34.0,-12.0,-33.0,25.0,34.0,-15.0,-27.0,-20.0,0.0,-5.0,36.0,7.0,0.0
16:15:01.475 12/08/2009,-77.0,-7.0,61.0,-9.0,24.0,-23.0,3.0,-39.0,4.0,13.0,-117.0,82.0,3.0,-1.0,-37.0,12.0,59.0,31.0,6.0,-18.0,-45.0,-170.0,-195.0,-221.0,-183.0,-108.0,-113.0,-92.0,-144.0,-78.0,-44.0,-44.0,5.0,-24.0,-2.0,-47.0,-63.0,-119.0,-37.0,-49.0,-14.0,12.0,-17.0,43.0,-568.0,-15.0,-20.0,-35.0,-86.0,-33.0,-56.0,-43.0,-51.0,-100.0,-112.0,-75.0,-75.0,-101.0,-111.0,-91.0,-111.0,-117.0,-42.0,-67.0,0.0
16:15:01.481 12/08/2009,-71.0,-34.0,20.0,-46.0,-21.0,-65.0,-46.0,-63.0,-37.0,-37.0,-90.0,44.0,-55.0,-53.0,-81.0,-36.0,11.0,-21.0,-42.0,-65.0,-89.0,-121.0,-224.0,-256.0,-202.0,-122.0,-128.0,-110.0,-152.0,-93.0,-31.0,-33.0,1.0,-25.0,-4.0,-40.0,-46.0,-132.0,-33.0,-52.0,-17.0,-20.0,-24.0,40.0,-568.0,5.0,-15.0,-8.0,-53.0,-2.0,-28.0,2.0,-6.0,-54.0,-79.0,-35.0,-21.0,-34.0,-44.0,-22.0,-25.0,-23.0,46.0,25.0,0.0
16:15:01.488 12/08/2009,-1.0,41.0,102.0,34.0,73.0,31.0,44.0,22.0,43.0,60.0,-21.0,145.0,61.0,54.0,14.0,63.0,111.0,87.0,71.0,49.0,14.0,-53.0,-132.0,-169.0,-61.0,-31.0,-24.0,-20.0,-100.0,18.0,44.0,70.0,107.0,79.0,103.0,55.0,42.0,-46.0,64.0,39.0,63.0,100.0,40.0,91.0,-566.0,59.0,80.0,50.0,31.0,86.0,55.0,82.0,63.0,-1.0,-34.0,41.0,41.0,30.0,-1.0,-3.0,19.0,30.0,73.0,62.0,0.0
16:15:01.494 12/08/2009,33.0,81.0,137.0,69.0,109.0,64.0,61.0,18.0,49.0,71.0,-5.0,163.0,83.0,60.0,-12.0,42.0,93.0,70.0,62.0,37.0,4.0,-95.0,-154.0,-187.0,-125.0,-53.0,-52.0,-61.0,-119.0,-34.0,7.0,25.0,68.0,46.0,55.0,7.0,-18.0,-108.0,-17.0,-27.0,-37.0,15.0,-19.0,26.0,-568.0,-13.0,-25.0,-6.0,-34.0,-1.0,-25.0,7.0,2.0,-50.0,-98.0,-35.0,-20.0,-48.0,-53.0,-26.0,-16.0,-18.0,40.0,4.0,0.0
16:15:01.500 12/08/2009,-51.0,1.0,68.0,13.0,51.0,11.0,8.0,-52.0,-31.0,4.0,-10.0,110.0,45.0,33.0,-60.0,-13.0,38.0,22.0,20.0,5.0,-29.0,-110.0,-198.0,-233.0,-165.0,-91.0,-78.0,-79.0,-190.0,-57.0,-25.0,4.0,52.0,29.0,47.0,6.0,-3.0,-106.0,-18.0,-8.0,-10.0,50.0,-3.0,56.0,-567.0,50.0,27.0,18.0,-23.0,32.0,16.0,68.0,63.0,7.0,-31.0,17.0,14.0,2.0,11.0,19.0,-10.0,1.0,88.0,45.0,0.0
16:15:01.506 12/08/2009,-1.0,46.0,129.0,71.0,110.0,65.0,59.0,26.0,35.0,79.0,-12.0,186.0,126.0,108.0,25.0,77.0,126.0,114.0,108.0,94.0,54.0,-119.0,-150.0,-188.0,-115.0,-17.0,-33.0,-56.0,-103.0,-30.0,6.0,43.0,88.0,66.0,72.0,8.0,-20.0,-116.0,15.0,-4.0,23.0,119.0,21.0,62.0,-566.0,30.0,34.0,34.0,-16.0,34.0,13.0,54.0,45.0,-18.0,-67.0,6.0,-4.0,-29.0,-35.0,-34.0,-21.0,-21.0,25.0,-6.0,0.0
16:15:01.513 12/08/2009,-36.0,-11.0,64.0,4.0,45.0,12.0,4.0,-43.0,-29.0,8.0,-27.0,120.0,70.0,54.0,-61.0,-14.0,41.0,29.0,25.0,12.0,-20.0,-96.0,-225.0,-268.0,-149.0,-144.0,-123.0,-137.0,-191.0,-86.0,-58.0,-40.0,5.0,-16.0,-2.0,-54.0,-72.0,-157.0,-45.0,-53.0,-37.0,-42.0,-23.0,24.0,-567.0,4.0,-18.0,-25.0,-74.0,-16.0,-34.0,4.0,-1.0,-54.0,-83.0,-69.0,-49.0,-61.0,-61.0,-27.0,-79.0,-63.0,19.0,-21.0,0.0
16:15:01.519 12/08/2009,-39.0,-14.0,62.0,4.0,51.0,13.0,-10.0,-27.0,-6.0,17.0,-22.0,140.0,77.0,22.0,-39.0,20.0,80.0,68.0,64.0,47.0,2.0,-83.0,-187.0,-231.0,-124.0,-80.0,-65.0,-79.0,-139.0,-27.0,3.0,30.0,69.0,55.0,75.0,16.0,-15.0,-103.0,42.0,-17.0,18.0,48.0,61.0,92.0,-564.0,68.0,46.0,13.0,-1.0,82.0,61.0,95.0,87.0,37.0,14.0,9.0,21.0,37.0,35.0,61.0,10.0,40.0,103.0,69.0,0.0
16:15:01.525 12/08/2009,21.0,54.0,129.0,64.0,117.0,68.0,36.0,16.0,57.0,78.0,-14.0,178.0,114.0,64.0,-6.0,61.0,124.0,102.0,92.0,70.0,26.0,-114.0,-182.0,-217.0,-185.0,-77.0,-68.0,-83.0,-140.0,-53.0,-21.0,13.0,50.0,34.0,44.0,-17.0,-52.0,-131.0,-25.0,-64.0,-26.0,-11.0,-4.0,46.0,-565.0,6.0,2.0,0.0,-35.0,32.0,7.0,30.0,9.0,-47.0,-93.0,-23.0,-17.0,-32.0,-69.0,-56.0,-41.0,-55.0,-8.0,-53.0,0.0
16:15:01.531 12/08/2009,-26.0,-17.0,47.0,-18.0,24.0,-24.0,-65.0,-45.0,-6.0,0.0,-29.0,98.0,17.0,-26.0,-63.0,-2.0,58.0,32.0,18.0,-16.0,-49.0,-145.0,-246.0,-260.0,-242.0,-140.0,-138.0,-136.0,-237.0,-124.0,-61.0,-44.0,-6.0,-27.0,-12.0,-74.0,-100.0,-209.0,-62.0,-113.0,-49.0,-20.0,-31.0,49.0,-565.0,3.0,11.0,10.0,-34.0,29.0,4.0,23.0,-1.0,-50.0,-81.0,-31.0,-12.0,-24.0,-58.0,-42.0,-45.0,-49.0,11.0,-27.0,0.0
16:15:01.538 12/08/2009,-83.0,-31.0,41.0,-23.0,17.0,-18.0,-43.0,-39.0,3.0,18.0,-67.0,96.0,36.0,4.0,-29.0,29.0,90.0,68.0,55.0,15.0,19.0,-132.0,-212.0,-273.0,-168.0,-116.0,-100.0,-107.0,-158.0,-58.0,-24.0,-14.0,23.0,-2.0,23.0,-35.0,-67.0,-167.0,22.0,-52.0,22.0,32.0,56.0,92.0,-562.0,58.0,62.0,22.0,-1.0,68.0,37.0,67.0,42.0,-5.0,-15.0,8.0,19.0,11.0,-12.0,12.0,-3.0,11.0,66.0,40.0,0.0
16:15:01.544 12/08/2009,-29.0,3.0,58.0,-22.0,17.0,-22.0,-49.0,-18.0,15.0,16.0,-73.0,81.0,11.0,-8.0,-31.0,10.0,62.0,27.0,8.0,-23.0,-8.0,-167.0,-256.0,-284.0,-217.0,-161.0,-171.0,-184.0,-235.0,-120.0,-105.0,-83.0,-53.0,-80.0,-64.0,-121.0,-159.0,-233.0,-87.0,-115.0,-73.0,-52.0,-51.0,21.0,-565.0,-36.0,-27.0,-20.0,-78.0,-36.0,-63.0,-48.0,-65.0,-116.0,-137.0,-43.0,-48.0,-81.0,-118.0,-99.0,-62.0,-88.0,-42.0,-91.0,0.0
16:15:01.550 12/08/2009,-106.0,-73.0,-18.0,-95.0,-52.0,-85.0,-101.0,-79.0,-42.0,-40.0,-85.0,29.0,-34.0,-47.0,-69.0,-23.0,23.0,-9.0,-29.0,-56.0,-33.0,-214.0,-267.0,-299.0,-208.0,-147.0,-148.0,-166.0,-203.0,-105.0,-73.0,-40.0,-19.0,-52.0,-23.0,-78.0,-105.0,-180.0,-52.0,-51.0,-47.0,20.0,-19.0,72.0,-563.0,26.0,-6.0,-26.0,-48.0,9.0,-22.0,2.0,-14.0,-33.0,-46.0,-70.0,-33.0,-26.0,-47.0,-26.0,-59.0,-26.0,33.0,22.0,0.0
16:15:01.556 12/08/2009,-26.0,12.0,61.0,-5.0,27.0,-18.0,-7.0,-6.0,34.0,32.0,-89.0,81.0,5.0,19.0,-13.0,41.0,80.0,40.0,18.0,-11.0,17.0,-85.0,-182.0,-211.0,-150.0,-78.0,-82.0,-84.0,-132.0,-61.0,-26.0,1.0,26.0,1.0,20.0,-19.0,-44.0,-134.0,-43.0,-13.0,-36.0,-3.0,-3.0,77.0,-562.0,15.0,37.0,6.0,-28.0,24.0,-13.0,1.0,-19.0,-50.0,-67.0,8.0,-2.0,-26.0,-63.0,-42.0,-5.0,-9.0,26.0,-8.0,0.0
16:15:01.563 12/08/2009,-70.0,-34.0,17.0,-44.0,-17.0,-59.0,-39.0,-69.0,-28.0,-25.0,-99.0,27.0,-62.0,-34.0,-75.0,-25.0,24.0,-13.0,-41.0,-76.0,-49.0,-135.0,-234.0,-278.0,-236.0,-151.0,-134.0,-145.0,-232.0,-121.0,-71.0,-48.0,-21.0,-45.0,-24.0,-64.0,-77.0,-181.0,-88.0,-53.0,-89.0,2.0,-56.0,17.0,-565.0,-32.0,-56.0,-33.0,-83.0,-16.0,-47.0,-35.0,-47.0,-74.0,-99.0,-89.0,-54.0,-50.0,-68.0,-39.0,-74.0,-37.0,54.0,29.0,0.0
16:15:01.569 12/08/2009,-51.0,-8.0,61.0,4.0,28.0,-21.0,-12.0,-52.0,-3.0,14.0,-25.0,74.0,-29.0,4.0,-67.0,6.0,67.0,33.0,10.0,-30.0,-3.0,-133.0,-175.0,-208.0,-237.0,-30.0,-47.0,-62.0,-120.0,-54.0,9.0,45.0,78.0,53.0,76.0,14.0,-36.0,-93.0,-21.0,12.0,-22.0,39.0,13.0,76.0,-562.0,15.0,10.0,-1.0,-21.0,45.0,13.0,33.0,13.0,-35.0,-68.0,-27.0,-6.0,-3.0,-35.0,-42.0,-17.0,-1.0,29.0,-17.0,0.0
16:15:01.575 12/08/2009,-22.0,26.0,94.0,48.0,73.0,18.0,30.0,-32.0,5.0,34.0,-76.0,108.0,11.0,23.0,-52.0,8.0,70.0,41.0,23.0,-22.0,1.0,-59.0,-152.0,-201.0,-103.0,-84.0,-60.0,-60.0,-136.0,-52.0,-20.0,0.0,42.0,22.0,48.0,-3.0,-37.0,-98.0,-45.0,-26.0,-43.0,18.0,-11.0,56.0,-563.0,-8.0,-42.0,-42.0,-65.0,5.0,-25.0,1.0,-15.0,-64.0,-98.0,-85.0,-56.0,-45.0,-72.0,-54.0,-93.0,-84.0,-3.0,-43.0,0.0
16:15:01.581 12/08/2009,-79.0,-47.0,27.0,-21.0,6.0,-23.0,-30.0,-84.0,-62.0,-30.0,-54.0,66.0,-20.0,-27.0,-100.0,-46.0,22.0,-1.0,-16.0,-52.0,-42.0,-117.0,-215.0,-269.0,-212.0,-145.0,-112.0,-120.0,-199.0,-112.0,-68.0,-44.0,-8.0,-26.0,-1.0,-52.0,-80.0,-185.0,-60.0,-44.0,-54.0,-18.0,-24.0,29.0,-560.0,-25.0,-13.0,-8.0,-50.0,-4.0,-26.0,-5.0,-26.0,-74.0,-101.0,-64.0,-31.0,-40.0,-91.0,-72.0,-41.0,-52.0,-8.0,-22.0,0.0
16:15:01.588 12/08/2009,-33.0,-16.0,60.0,11.0,53.0,9.0,0.0,-25.0,-11.0,24.0,-41.0,122.0,58.0,34.0,-26.0,22.0,82.0,69.0,55.0,19.0,20.0,-72.0,-154.0,-204.0,-136.0,-81.0,-54.0,-55.0,-124.0,-15.0,8.0,20.0,50.0,43.0,64.0,4.0,-37.0,-116.0,34.0,-13.0,37.0,50.0,59.0,91.0,-540.0,36.0,79.0,55.0,27.0,79.0,50.0,72.0,53.0,2.0,-37.0,97.0,78.0,37.0,-17.0,-33.0,82.0,33.0,43.0,-23.0,0.0
16:15:01.594 12/08/2009,-4.0,2.0,81.0,21.0,77.0,30.0,8.0,-2.0,14.0,45.0,-25.0,151.0,84.0,48.0,3.0,43.0,103.0,77.0,61.0,30.0,36.0,-135.0,-218.0,-258.0,-164.0,-139.0,-125.0,-131.0,-189.0,-90.0,-63.0,-56.0,-26.0,-35.0,-24.0,-75.0,-116.0,-182.0,-33.0,-66.0,-25.0,-14.0,5.0,20.0,-554.0,-21.0,-6.0,-9.0,-52.0,3.0,-21.0,-8.0,-21.0,-54.0,-93.0,-81.0,-40.0,-43.0,-88.0,-42.0,-85.0,-40.0,26.0,15.0,0.0
16:15:01.600 12/08/2009,-65.0,-64.0,3.0,-69.0,-8.0,-46.0,-55.0,-54.0,-25.0,-4.0,-29.0,97.0,39.0,6.0,-55.0,4.0,66.0,49.0,33.0,6.0,14.0,-165.0,-261.0,-301.0,-196.0,-157.0,-153.0,-156.0,-215.0,-83.0,-44.0,-51.0,-23.0,-32.0,-24.0,-80.0,-107.0,-168.0,-8.0,-36.0,7.0,4.0,70.0,51.0,-531.0,14.0,63.0,40.0,5.0,69.0,44.0,54.0,35.0,-14.0,-54.0,21.0,37.0,25.0,-37.0,-16.0,25.0,25.0,45.0,87.0,0.0
16:15:01.606 12/08/2009,29.0,29.0,98.0,16.0,78.0,36.0,15.0,52.0,74.0,95.0,4.0,183.0,122.0,77.0,39.0,94.0,153.0,130.0,107.0,67.0,70.0,-111.0,-167.0,-202.0,-138.0,-73.0,-75.0,-72.0,-122.0,-22.0,11.0,22.0,42.0,29.0,39.0,-16.0,-48.0,-106.0,-7.0,-19.0,33.0,12.0,83.0,62.0,-520.0,3.0,78.0,55.0,31.0,96.0,63.0,62.0,43.0,-14.0,-63.0,16.0,40.0,26.0,-49.0,-26.0,5.0,0.0,24.0,-3.0,0.0
16:15:01.613 12/08/2009,-11.0,-1.0,54.0,-24.0,43.0,6.0,-31.0,-12.0,12.0,35.0,-1.0,136.0,76.0,11.0,-42.0,16.0,89.0,66.0,48.0,13.0,3.0,-188.0,-253.0,-288.0,-252.0,-141.0,-161.0,-166.0,-227.0,-87.0,-95.0,-75.0,-52.0,-68.0,-58.0,-108.0,-139.0,-206.0,0.0,-106.0,-51.0,-60.0,5.0,1.0,-559.0,-49.0,1.0,15.0,-31.0,24.0,2.0,17.0,-1.0,-56.0,-95.0,-41.0,-14.0,-12.0,-65.0,-33.0,-60.0,-52.0,22.0,-35.0,0.0
16:15:01.619 12/08/2009,-68.0,-47.0,12.0,-58.0,4.0,-23.0,-49.0,-35.0,-11.0,8.0,-10.0,111.0,67.0,8.0,-32.0,22.0,95.0,70.0,63.0,35.0,27.0,-119.0,-210.0,-248.0,-145.0,-124.0,-118.0,-111.0,-161.0,-46.0,-31.0,-23.0,4.0,-8.0,8.0,-45.0,-65.0,-116.0,14.0,-26.0,11.0,24.0,74.0,77.0,-532.0,40.0,89.0,71.0,48.0,109.0,82.0,101.0,81.0,32.0,-17.0,58.0,72.0,64.0,21.0,22.0,32.0,41.0,83.0,60.0,0.0
16:15:01.625 12/08/2009,-3.0,15.0,74.0,1.0,62.0,27.0,-1.0,25.0,38.0,58.0,-35.0,140.0,90.0,40.0,8.0,58.0,115.0,85.0,72.0,47.0,48.0,-168.0,-237.0,-269.0,-189.0,-150.0,-143.0,-147.0,-212.0,-86.0,-67.0,-79.0,-47.0,-49.0,-43.0,-90.0,-128.0,-190.0,-50.0,-77.0,-71.0,-23.0,1.0,24.0,-554.0,-22.0,14.0,11.0,-35.0,16.0,-12.0,11.0,-4.0,-45.0,-100.0,-46.0,-19.0,-32.0,-72.0,-36.0,-67.0,-51.0,12.0,-21.0,0.0
16:15:01.631 12/08/2009,-115.0,-100.0,-37.0,-103.0,-45.0,-77.0,-98.0,-107.0,-66.0,-46.0,-95.0,50.0,-7.0,-40.0,-91.0,-40.0,23.0,-8.0,-12.0,-44.0,-36.0,-253.0,-321.0,-356.0,-277.0,-219.0,-209.0,-212.0,-254.0,-146.0,-121.0,-131.0,-96.0,-91.0,-83.0,-128.0,-155.0,-217.0,-114.0,-76.0,-55.0,8.0,-26.0,22.0,-552.0,-16.0,12.0,11.0,-29.0,29.0,-4.0,17.0,5.0,-34.0,-82.0,-27.0,10.0,-12.0,-49.0,-24.0,-21.0,-16.0,45.0,22.0,0.0
16:15:01.638 12/08/2009,-68.0,-44.0,22.0,-48.0,13.0,-17.0,-27.0,-44.0,-3.0,12.0,-69.0,106.0,56.0,31.0,-28.0,27.0,84.0,50.0,44.0,13.0,30.0,-225.0,-244.0,-295.0,-268.0,-155.0,-144.0,-144.0,-223.0,-95.0,-58.0,-54.0,-30.0,-40.0,-42.0,-86.0,-110.0,-154.0,-41.0,-38.0,-27.0,-18.0,3.0,72.0,-542.0,8.0,51.0,15.0,-11.0,39.0,1.0,17.0,7.0,-35.0,-73.0,5.0,13.0,-20.0,-62.0,-43.0,-14.0,-19.0,13.0,16.0,0.0
16:15:01.644 12/08/2009,-87.0,-52.0,5.0,-63.0,-12.0,-55.0,-61.0,-59.0,-28.0,-8.0,-111.0,76.0,5.0,-36.0,-51.0,-12.0,47.0,21.0,10.0,-27.0,-14.0,-198.0,-281.0,-324.0,-326.0,-180.0,-178.0,-182.0,-219.0,-138.0,-98.0,-84.0,-62.0,-71.0,-75.0,-117.0,-140.0,-173.0,-96.0,-62.0,-68.0,-22.0,-49.0,23.0,-556.0,-36.0,-33.0,-23.0,-72.0,-28.0,-62.0,-45.0,-53.0,-92.0,-116.0,-88.0,-53.0,-87.0,-119.0,-64.0,-78.0,-79.0,-16.0,-42.0,0.0
16:15:01.650 12/08/2009,-109.0,-83.0,-12.0,-80.0,-48.0,-109.0,-93.0,-87.0,-61.0,-43.0,-53.0,22.0,-86.0,-89.0,-97.0,-52.0,1.0,-31.0,-55.0,-97.0,-76.0,-216.0,-281.0,-317.0,-223.0,-156.0,-150.0,-155.0,-247.0,-124.0,-82.0,-75.0,-31.0,-36.0,-30.0,-76.0,-94.0,-150.0,-55.0,-58.0,-31.0,-14.0,7.0,58.0,-530.0,-32.0,30.0,4.0,-46.0,-7.0,-48.0,-40.0,-60.0,-93.0,-104.0,-9.0,-10.0,-60.0,-114.0,-86.0,-27.0,-36.0,-6.0,-5.0,0.0
16:15:01.656 12/08/2009,-30.0,-6.0,69.0,12.0,40.0,-30.0,-7.0,-11.0,15.0,33.0,-72.0,87.0,-30.0,-22.0,-21.0,23.0,69.0,35.0,-2.0,-54.0,-34.0,-90.0,-194.0,-240.0,-115.0,-111.0,-92.0,-93.0,-135.0,-63.0,-30.0,-38.0,2.0,1.0,6.0,-32.0,-58.0,-120.0,-32.0,-4.0,-26.0,11.0,2.0,59.0,-537.0,-27.0,32.0,7.0,-52.0,2.0,-41.0,-35.0,-52.0,-98.0,-118.0,8.0,-20.0,-58.0,-121.0,-92.0,-29.0,-48.0,-17.0,-20.0,0.0
16:15:01.663 12/08/2009,-93.0,-72.0,6.0,-40.0,-1.0,-50.0,-40.0,-103.0,-79.0,-41.0,-76.0,50.0,-54.0,-51.0,-120.0,-76.0,-8.0,-26.0,-53.0,-98.0,-95.0,-155.0,-269.0,-303.0,-214.0,-167.0,-144.0,-161.0,-219.0,-142.0,-124.0,-97.0,-45.0,-40.0,-26.0,-67.0,-81.0,-177.0,-114.0,-29.0,-118.0,-33.0,-70.0,8.0,-562.0,-57.0,-88.0,-101.0,-139.0,-58.0,-72.0,-53.0,-68.0,-108.0,-129.0,-165.0,-120.0,-86.0,-116.0,-80.0,-128.0,-91.0,-5.0,-42.0,0.0
16:15:01.669 12/08/2009,-101.0,-68.0,33.0,2.0,48.0,4.0,-4.0,-108.0,-77.0,-9.0,-13.0,110.0,30.0,0.0,-105.0,-51.0,33.0,30.0,22.0,-25.0,-30.0,-117.0,-215.0,-247.0,-158.0,-112.0,-83.0,-87.0,-148.0,-82.0,-51.0,-30.0,27.0,33.0,39.0,-8.0,-59.0,-106.0,-47.0,-20.0,-50.0,34.0,-8.0,54.0,-545.0,-1.0,7.0,-44.0,-55.0,27.0,10.0,31.0,10.0,-47.0,-76.0,-47.0,-39.0,-6.0,-59.0,-57.0,-41.0,-36.0,9.0,-17.0,0.0
16:15:01.675 12/08/2009,-60.0,-26.0,70.0,25.0,72.0,31.0,23.0,-64.0,-32.0,26.0,-25.0,145.0,73.0,26.0,-65.0,-2.0,76.0,68.0,51.0,5.0,-18.0,-133.0,-219.0,-248.0,-155.0,-126.0,-105.0,-97.0,-153.0,-96.0,-73.0,-50.0,-6.0,-3.0,2.0,-42.0,-71.0,-138.0,-102.0,-20.0,-95.0,-11.0,-21.0,17.0,-552.0,-59.0,-14.0,-34.0,-61.0,9.0,-12.0,1.0,-15.0,-78.0,-130.0,-43.0,-24.0,-26.0,-85.0,-64.0,-20.0,-25.0,10.0,2.0,0.0
16:15:01.681 12/08/2009,-46.0,-47.0,31.0,-23.0,31.0,-5.0,-19.0,-81.0,-45.0,11.0,15.0,128.0,56.0,-1.0,-82.0,-20.0,53.0,44.0,33.0,-14.0,-51.0,-140.0,-230.0,-259.0,-189.0,-137.0,-117.0,-111.0,-146.0,-120.0,-78.0,-65.0,-17.0,-14.0,-3.0,-42.0,-65.0,-145.0,-64.0,-13.0,-76.0,-16.0,-14.0,4.0,-533.0,-49.0,-3.0,-2.0,-53.0,13.0,-16.0,3.0,-10.0,-59.0,-106.0,-39.0,-21.0,-33.0,-81.0,-62.0,-50.0,-60.0,12.0,-29.0,0.0
16:15:01.688 12/08/2009,-122.0,-43.0,60.0,8.0,56.0,17.0,-3.0,-77.0,-29.0,38.0,-17.0,151.0,86.0,25.0,-40.0,6.0,73.0,69.0,59.0,13.0,-12.0,-108.0,-201.0,-237.0,-176.0,-83.0,-69.0,-84.0,-175.0,-69.0,-30.0,1.0,52.0,45.0,52.0,-5.0,-40.0,-117.0,-8.0,1.0,-12.0,20.0,56.0,62.0,-484.0,-17.0,43.0,-12.0,-36.0,33.0,1.0,25.0,12.0,-34.0,-78.0,-27.0,-26.0,-29.0,-52.0,-51.0,-40.0,-33.0,32.0,-7.0,0.0
16:15:01.694 12/08/2009,-34.0,15.0,98.0,38.0,75.0,18.0,-10.0,-40.0,1.0,49.0,-31.0,144.0,68.0,10.0,-53.0,-12.0,55.0,52.0,35.0,-14.0,-34.0,-128.0,-231.0,-258.0,-192.0,-112.0,-103.0,-135.0,-182.0,-105.0,-52.0,-39.0,3.0,-7.0,-14.0,-72.0,-114.0,-196.0,-60.0,-54.0,-74.0,-60.0,-15.0,4.0,-511.0,-78.0,-3.0,-43.0,-108.0,-49.0,-78.0,-50.0,-60.0,-96.0,-139.0,-95.0,-95.0,-104.0,-118.0,-89.0,-104.0,-97.0,-15.0,-27.0,0.0
16:15:01.700 12/08/2009,-101.0,-48.0,17.0,-40.0,2.0,-48.0,-90.0,-96.0,-55.0,-24.0,-23.0,78.0,10.0,-48.0,-92.0,-54.0,17.0,7.0,-6.0,-49.0,-75.0,-166.0,-260.0,-300.0,-185.0,-107.0,-116.0,-149.0,-216.0,-106.0,-40.0,-37.0,4.0,-9.0,-4.0,-64.0,-119.0,-200.0,-50.0,-59.0,-56.0,-46.0,33.0,26.0,-479.0,-49.0,31.0,6.0,-43.0,15.0,-25.0,1.0,-10.0,-58.0,-98.0,-38.0,-14.0,-37.0,-67.0,-42.0,-7.0,-19.0,29.0,21.0,0.0
16:15:01.706 12/08/2009,-44.0,12.0,89.0,39.0,82.0,25.0,-13.0,-26.0,20.0,53.0,-31.0,138.0,70.0,18.0,-24.0,26.0,88.0,68.0,51.0,1.0,-5.0,-115.0,-196.0,-233.0,-243.0,-75.0,-62.0,-89.0,-162.0,-101.0,-39.0,-4.0,42.0,36.0,42.0,-29.0,-90.0,-149.0,-53.0,-55.0,-68.0,-18.0,19.0,32.0,-486.0,-39.0,36.0,-5.0,-34.0,21.0,-31.0,-12.0,-25.0,-81.0,-120.0,-17.0,-17.0,-51.0,-94.0,-79.0,-41.0,-59.0,-21.0,-33.0,0.0
16:15:01.713 12/08/2009,-82.0,-24.0,46.0,-10.0,24.0,-27.0,-71.0,-72.0,-20.0,5.0,-27.0,84.0,10.0,-40.0,-64.0,-13.0,44.0,17.0,-6.0,-55.0,-64.0,-230.0,-265.0,-300.0,-206.0,-147.0,-134.0,-154.0,-231.0,-134.0,-104.0,-81.0,-35.0,-42.0,-31.0,-88.0,-143.0,-233.0,-87.0,-111.0,-110.0,-67.0,-32.0,-10.0,-502.0,-70.0,32.0,21.0,-35.0,5.0,-45.0,-31.0,-43.0,-89.0,-108.0,-12.0,-4.0,-48.0,-89.0,-38.0,-21.0,-30.0,28.0,17.0,0.0
16:15:01.719 12/08/2009,-102.0,-52.0,17.0,-39.0,8.0,-38.0,-86.0,-64.0,-25.0,0.0,-20.0,87.0,14.0,-30.0,-44.0,9.0,71.0,51.0,26.0,-25.0,-34.0,-82.0,-232.0,-275.0,-239.0,-150.0,-112.0,-125.0,-209.0,-125.0,-89.0,-53.0,-2.0,2.0,13.0,-47.0,-101.0,-173.0,-45.0,-86.0,-44.0,-25.0,24.0,40.0,-451.0,-18.0,81.0,53.0,23.0,87.0,38.0,44.0,31.0,-25.0,-52.0,32.0,61.0,23.0,-23.0,6.0,33.0,33.0,69.0,61.0,0.0
16:15:01.725 12/08/2009,-44.0,-3.0,77.0,22.0,60.0,-5.0,-55.0,-15.0,25.0,64.0,-36.0,130.0,49.0,-7.0,-10.0,52.0,116.0,89.0,56.0,-5.0,-13.0,-138.0,-234.0,-285.0,-177.0,-138.0,-121.0,-158.0,-243.0,-100.0,-88.0,-71.0,-11.0,-13.0,-29.0,-91.0,-151.0,-251.0,-63.0,-147.0,-87.0,-46.0,-8.0,12.0,-488.0,-70.0,18.0,5.0,-39.0,13.0,-34.0,-37.0,-53.0,-112.0,-129.0,-39.0,-17.0,-59.0,-116.0,-83.0,-50.0,-56.0,-11.0,-11.0,0.0
16:15:01.731 12/08/2009,-117.0,-78.0,-1.0,-67.0,-33.0,-108.0,-146.0,-103.0,-65.0,-31.0,-59.0,41.0,-55.0,-80.0,-111.0,-46.0,14.0,-6.0,-39.0,-90.0,-101.0,-124.0,-287.0,-340.0,-202.0,-184.0,-163.0,-203.0,-241.0,-135.0,-109.0,-101.0,-46.0,-53.0,-59.0,-130.0,-184.0,-265.0,-86.0,-142.0,-111.0,-27.0,3.0,3.0,-472.0,-65.0,16.0,-16.0,-62.0,-3.0,-38.0,-36.0,-50.0,-98.0,-106.0,-47.0,-25.0,-44.0,-97.0,-50.0,-35.0,-24.0,31.0,25.0,0.0
16:15:01.738 12/08/2009,-74.0,-49.0,23.0,-33.0,-1.0,-76.0,-103.0,-51.0,-27.0,1.0,-77.0,54.0,-37.0,-55.0,-45.0,1.0,46.0,21.0,-8.0,-56.0,-52.0,-98.0,-249.0,-278.0,-186.0,-149.0,-136.0,-145.0,-259.0,-77.0,-67.0,-67.0,-22.0,-32.0,-31.0,-92.0,-145.0,-230.0,-15.0,-89.0,2.0,-54.0,60.0,73.0,-421.0,-12.0,89.0,37.0,-8.0,40.0,-12.0,-11.0,-31.0,-77.0,-82.0,48.0,44.0,-10.0,-76.0,-61.0,64.0,57.0,32.0,92.0,0.0
16:15:01.744 12/08/2009,-49.0,-32.0,18.0,-41.0,-18.0,-92.0,-104.0,-25.0,-16.0,-12.0,-105.0,27.0,-84.0,-89.0,-39.0,-8.0,26.0,-13.0,-53.0,-111.0,-97.0,-149.0,-282.0,-362.0,-218.0,-189.0,-171.0,-213.0,-248.0,-133.0,-111.0,-124.0,-82.0,-96.0,-95.0,-146.0,-192.0,-277.0,-137.0,-163.0,-90.0,-101.0,-6.0,-6.0,-495.0,-101.0,-13.0,-32.0,-103.0,-53.0,-100.0,-102.0,-118.0,-171.0,-176.0,-100.0,-83.0,-109.0,-151.0,-112.0,-124.0,-118.0,-26.0,-76.0,0.0
16:15:01.750 12/08/2009,-118.0,-119.0,-67.0,-125.0,-98.0,-152.0,-155.0,-108.0,-103.0,-83.0,-114.0,-18.0,-114.0,-118.0,-83.0,-54.0,-10.0,-35.0,-66.0,-118.0,-115.0,-172.0,-303.0,-346.0,-241.0,-201.0,-187.0,-228.0,-285.0,-116.0,-103.0,-126.0,-91.0,-90.0,-83.0,-130.0,-161.0,-251.0,-14.0,-77.0,-29.0,-44.0,44.0,40.0,-413.0,-67.0,118.0,69.0,-2.0,42.0,-5.0,-3.0,-16.0,-74.0,-77.0,57.0,42.0,-13.0,-53.0,-35.0,10.0,-12.0,40.0,45.0,0.0
16:15:01.756 12/08/2009,-89.0,-71.0,6.0,-44.0,7.0,-43.0,-59.0,-58.0,-45.0,3.0,-63.0,95.0,22.0,-26.0,-54.0,-8.0,55.0,53.0,35.0,-17.0,-20.0,-147.0,-243.0,-288.0,-213.0,-152.0,-131.0,-163.0,-218.0,-101.0,-61.0,-74.0,-39.0,-35.0,-24.0,-70.0,-100.0,-206.0,-48.0,-73.0,-46.0,3.0,51.0,66.0,-446.0,-14.0,18.0,-40.0,-65.0,14.0,-16.0,1.0,-1.0,-45.0,-55.0,-94.0,-54.0,-40.0,-60.0,-24.0,-68.0,-44.0,32.0,25.0,0.0
16:15:01.763 12/08/2009,-118.0,-99.0,-18.0,-59.0,-5.0,-60.0,-87.0,-115.0,-103.0,-34.0,-59.0,83.0,10.0,-60.0,-112.0,-74.0,2.0,9.0,-5.0,-46.0,-61.0,-176.0,-306.0,-340.0,-220.0,-197.0,-178.0,-210.0,-269.0,-155.0,-145.0,-138.0,-92.0,-81.0,-84.0,-137.0,-213.0,-251.0,-108.0,-116.0,-119.0,-101.0,-29.0,7.0,-480.0,-69.0,8.0,-14.0,-84.0,-29.0,-52.0,-45.0,-45.0,-95.0,-126.0,-10.0,-35.0,-71.0,-109.0,-68.0,-22.0,-54.0,-4.0,-30.0,0.0
16:15:01.769 12/08/2009,-115.0,-90.0,-3.0,-50.0,3.0,-57.0,-83.0,-82.0,-62.0,6.0,-6.0,113.0,50.0,-29.0,-66.0,-11.0,60.0,66.0,47.0,-2.0,-24.0,-118.0,-244.0,-280.0,-193.0,-122.0,-119.0,-145.0,-197.0,-82.0,-69.0,-61.0,-13.0,-5.0,-4.0,-64.0,-110.0,-165.0,-26.0,-42.0,-33.0,23.0,43.0,62.0,-427.0,-1.0,46.0,8.0,-20.0,67.0,45.0,52.0,45.0,-8.0,-50.0,-21.0,13.0,27.0,-4.0,14.0,11.0,38.0,74.0,90.0,0.0
16:15:01.775 12/08/2009,-51.0,-11.0,71.0,26.0,79.0,17.0,-24.0,-34.0,4.0,76.0,-8.0,168.0,89.0,16.0,-38.0,22.0,98.0,106.0,82.0,30.0,-7.0,-184.0,-240.0,-279.0,-230.0,-78.0,-102.0,-134.0,-190.0,-98.0,-68.0,-48.0,-6.0,6.0,1.0,-56.0,-124.0,-183.0,-77.0,-82.0,-64.0,-21.0,-10.0,17.0,-439.0,-36.0,28.0,17.0,-31.0,32.0,6.0,12.0,15.0,-40.0,-80.0,-2.0,7.0,-10.0,-42.0,-4.0,-15.0,-8.0,52.0,18.0,0.0
16:15:01.781 12/08/2009,-93.0,-55.0,29.0,-24.0,21.0,-25.0,-62.0,-76.0,-40.0,13.0,10.0,122.0,35.0,-25.0,-70.0,-16.0,43.0,50.0,31.0,-17.0,-37.0,-96.0,-249.0,-296.0,-180.0,-185.0,-127.0,-144.0,-216.0,-124.0,-74.0,-73.0,-31.0,-13.0,-14.0,-63.0,-111.0,-177.0,-71.0,-77.0,-81.0,-21.0,-30.0,17.0,-437.0,-22.0,23.0,33.0,-10.0,42.0,15.0,22.0,27.0,-14.0,-55.0,8.0,41.0,14.0,-11.0,4.0,26.0,27.0,71.0,38.0,0.0
16:15:01.788 12/08/2009,-29.0,5.0,83.0,33.0,84.0,30.0,-9.0,-15.0,35.0,83.0,21.0,179.0,106.0,32.0,5.0,73.0,124.0,124.0,107.0,61.0,36.0,-70.0,-162.0,-211.0,-116.0,-53.0,-39.0,-62.0,-126.0,-32.0,23.0,23.0,60.0,67.0,67.0,7.0,-40.0,-93.0,8.0,-58.0,-36.0,28.0,50.0,84.0,-385.0,21.0,82.0,65.0,47.0,109.0,75.0,82.0,78.0,7.0,-47.0,64.0,80.0,50.0,15.0,20.0,50.0,57.0,88.0,90.0,0.0
16:15:01.794 12/08/2009,-5.0,34.0,94.0,43.0,91.0,40.0,-13.0,2.0,37.0,73.0,5.0,175.0,88.0,2.0,-5.0,45.0,100.0,97.0,69.0,17.0,-25.0,-74.0,-199.0,-240.0,-174.0,-103.0,-88.0,-110.0,-181.0,-82.0,-18.0,-22.0,9.0,10.0,4.0,-45.0,-100.0,-203.0,-49.0,-96.0,-91.0,-49.0,-8.0,6.0,-424.0,-67.0,49.0,47.0,2.0,32.0,-4.0,0.0,-12.0,-82.0,-117.0,10.0,7.0,-35.0,-86.0,-57.0,-42.0,-61.0,-2.0,-35.0,0.0
16:15:01.800 12/08/2009,-41.0,-7.0,55.0,1.0,48.0,-1.0,-60.0,-12.0,-2.0,24.0,11.0,130.0,49.0,-21.0,-30.0,13.0,55.0,55.0,36.0,-13.0,-44.0,-87.0,-215.0,-252.0,-141.0,-109.0,-85.0,-102.0,-186.0,-70.0,-18.0,-14.0,23.0,27.0,32.0,-11.0,-43.0,-152.0,-13.0,-60.0,-27.0,42.0,52.0,37.0,-369.0,-42.0,73.0,60.0,14.0,56.0,35.0,48.0,43.0,-20.0,-68.0,50.0,45.0,18.0,-16.0,0.0,22.0,14.0,70.0,53.0,0.0
16:15:01.806 12/08/2009,-1.0,38.0,112.0,62.0,111.0,63.0,30.0,16.0,44.0,87.0,-2.0,182.0,110.0,63.0,29.0,74.0,119.0,121.0,99.0,55.0,24.0,-76.0,-165.0,-214.0,-110.0,-37.0,-46.0,-56.0,-102.0,-29.0,18.0,17.0,54.0,54.0,44.0,-2.0,-45.0,-132.0,10.0,-83.0,27.0,-65.0,80.0,33.0,-355.0,-21.0,92.0,63.0,33.0,78.0,48.0,56.0,47.0,-20.0,-64.0,48.0,50.0,25.0,-15.0,5.0,2.0,2.0,68.0,6.0,0.0
16:15:01.813 12/08/2009,-30.0,1.0,68.0,1.0,43.0,-19.0,-68.0,-31.0,-4.0,38.0,-10.0,121.0,23.0,-62.0,-38.0,2.0,53.0,52.0,27.0,-23.0,-64.0,-106.0,-242.0,-285.0,-221.0,-163.0,-139.0,-163.0,-226.0,-105.0,-51.0,-52.0,-20.0,-26.0,-38.0,-83.0,-127.0,-211.0,-57.0,-138.0,-48.0,-95.0,4.0,-8.0,-395.0,-70.0,28.0,36.0,-16.0,21.0,2.0,5.0,-1.0,-51.0,-92.0,-21.0,8.0,-2.0,-27.0,15.0,-2.0,14.0,89.0,48.0,0.0
16:15:01.819 12/08/2009,-49.0,-21.0,52.0,-13.0,22.0,-62.0,-88.0,-36.0,-11.0,33.0,-5.0,92.0,-11.0,-60.0,-11.0,24.0,69.0,66.0,35.0,-14.0,-52.0,-74.0,-222.0,-261.0,-164.0,-109.0,-105.0,-120.0,-160.0,-51.0,-18.0,-18.0,14.0,9.0,-6.0,-64.0,-91.0,-165.0,-21.0,-94.0,16.0,-37.0,101.0,71.0,-314.0,-12.0,111.0,64.0,30.0,73.0,42.0,56.0,44.0,-12.0,-41.0,63.0,54.0,42.0,10.0,18.0,43.0,49.0,90.0,63.0,0.0
16:15:01.825 12/08/2009,42.0,24.0,69.0,2.0,21.0,-70.0,-68.0,17.0,18.0,45.0,-72.0,69.0,-37.0,-64.0,5.0,28.0,63.0,50.0,12.0,-39.0,-64.0,-110.0,-214.0,-253.0,-177.0,-90.0,-115.0,-126.0,-169.0,-80.0,-65.0,-51.0,-26.0,-40.0,-46.0,-89.0,-124.0,-182.0,-43.0,-115.0,-26.0,-58.0,45.0,38.0,-367.0,-46.0,33.0,-6.0,-63.0,-23.0,-57.0,-41.0,-50.0,-90.0,-111.0,-38.0,-41.0,-60.0,-88.0,-57.0,-72.0,-59.0,14.0,-13.0,0.0
16:15:01.831 12/08/2009,-155.0,-112.0,-57.0,-101.0,-76.0,-137.0,-128.0,-108.0,-112.0,-87.0,-120.0,-33.0,-122.0,-124.0,-96.0,-73.0,-49.0,-68.0,-95.0,-134.0,-124.0,-112.0,-275.0,-307.0,-204.0,-211.0,-185.0,-182.0,-215.0,-133.0,-121.0,-148.0,-107.0,-106.0,-99.0,-135.0,-145.0,-201.0,-76.0,-129.0,-66.0,-50.0,5.0,53.0,-384.0,-39.0,3.0,-24.0,-87.0,-53.0,-95.0,-67.0,-71.0,-94.0,-99.0,-38.0,-39.0,-84.0,-99.0,-45.0,-54.0,-45.0,32.0,12.0,0.0
16:15:01.838 12/08/2009,-99.0,-109.0,-50.0,-88.0,-48.0,-95.0,-78.0,-80.0,-102.0,-70.0,-154.0,-2.0,-63.0,-55.0,-61.0,-40.0,-17.0,-35.0,-52.0,-89.0,-76.0,-101.0,-243.0,-268.0,-214.0,-172.0,-147.0,-147.0,-190.0,-102.0,-88.0,-112.0,-65.0,-67.0,-52.0,-98.0,-106.0,-162.0,-66.0,-65.0,-54.0,-4.0,58.0,73.0,-355.0,-11.0,72.0,21.0,-37.0,-15.0,-59.0,-45.0,-44.0,-72.0,-77.0,39.0,10.0,-73.0,-95.0,-53.0,-12.0,-24.0,2.0,24.0,0.0
16:15:01.844 12/08/2009,-108.0,-109.0,-36.0,-67.0,-19.0,-69.0,-56.0,-88.0,-116.0,-61.0,-126.0,22.0,-38.0,-44.0,-83.0,-65.0,-32.0,-44.0,-64.0,-99.0,-87.0,-134.0,-280.0,-310.0,-223.0,-214.0,-184.0,-199.0,-246.0,-155.0,-150.0,-167.0,-117.0,-108.0,-105.0,-152.0,-170.0,-228.0,-116.0,-120.0,-118.0,-32.0,-44.0,9.0,-444.0,-75.0,-59.0,-61.0,-131.0,-114.0,-148.0,-131.0,-130.0,-143.0,-147.0,-87.0,-90.0,-171.0,-175.0,-94.0,-112.0,-98.0,-32.0,-24.0,0.0
16:15:01.850 12/08/2009,-182.0,-193.0,-106.0,-140.0,-80.0,-127.0,-122.0,-181.0,-196.0,-131.0,-122.0,-21.0,-72.0,-86.0,-157.0,-131.0,-87.0,-87.0,-85.0,-120.0,-117.0,-145.0,-304.0,-330.0,-250.0,-216.0,-192.0,-209.0,-236.0,-159.0,-138.0,-148.0,-103.0,-96.0,-84.0,-131.0,-138.0,-196.0,-110.0,-99.0,-119.0,5.0,-13.0,53.0,-391.0,-18.0,32.0,16.0,-54.0,-34.0,-65.0,-39.0,-43.0,-65.0,-72.0,48.0,9.0,-73.0,-77.0,-40.0,15.0,4.0,28.0,31.0,0.0
16:15:01.856 12/08/2009,-120.0,-116.0,-22.0,-54.0,-1.0,-30.0,-32.0,-110.0,-114.0,-41.0,-89.0,63.0,32.0,6.0,-93.0,-60.0,-3.0,4.0,9.0,-33.0,-33.0,-143.0,-252.0,-289.0,-281.0,-164.0,-150.0,-156.0,-198.0,-134.0,-106.0,-104.0,-63.0,-58.0,-54.0,-96.0,-113.0,-171.0,-82.0,-56.0,-84.0,20.0,2.0,61.0,-395.0,-21.0,-25.0,-47.0,-87.0,-32.0,-51.0,-23.0,-35.0,-79.0,-102.0,-62.0,-53.0,-61.0,-88.0,-77.0,-74.0,-39.0,30.0,6.0,0.0
16:15:01.863 12/08/2009,-109.0,-108.0,-35.0,-87.0,-27.0,-67.0,-63.0,-107.0,-110.0,-56.0,-99.0,46.0,-3.0,-35.0,-106.0,-75.0,-22.0,-12.0,-17.0,-61.0,-84.0,-204.0,-299.0,-325.0,-253.0,-193.0,-194.0,-208.0,-249.0,-148.0,-128.0,-143.0,-100.0,-98.0,-91.0,-133.0,-142.0,-200.0,-107.0,-103.0,-110.0,-44.0,-32.0,4.0,-407.0,-65.0,-27.0,-37.0,-100.0,-55.0,-79.0,-59.0,-69.0,-118.0,-147.0,-68.0,-73.0,-80.0,-135.0,-115.0,-96.0,-113.0,-40.0,-54.0,0.0
16:15:01.869 12/08/2009,-112.0,-90.0,-23.0,-69.0,-10.0,-56.0,-63.0,-101.0,-90.0,-34.0,-45.0,73.0,14.0,-14.0,-90.0,-52.0,7.0,13.0,13.0,-32.0,-45.0,-104.0,-240.0,-281.0,-297.0,-145.0,-128.0,-172.0,-244.0,-109.0,-53.0,-52.0,-12.0,-7.0,-3.0,-51.0,-48.0,-185.0,-40.0,-34.0,-40.0,16.0,40.0,73.0,-350.0,-21.0,33.0,-21.0,-43.0,27.0,13.0,31.0,22.0,-26.0,-84.0,-12.0,-17.0,18.0,-27.0,-36.0,-20.0,1.0,68.0,33.0,0.0
16:15:01.875 12/08/2009,-53.0,-16.0,56.0,12.0,71.0,16.0,3.0,-53.0,-27.0,26.0,-62.0,129.0,73.0,26.0,-65.0,-10.0,53.0,57.0,48.0,7.0,-24.0,-51.0,-199.0,-252.0,-125.0,-129.0,-102.0,-121.0,-163.0,-95.0,-82.0,-76.0,-23.0,-12.0,-6.0,-56.0,-97.0,-157.0,-63.0,-76.0,-66.0,-23.0,4.0,17.0,-389.0,-55.0,-15.0,-48.0,-61.0,-3.0,-17.0,-6.0,-12.0,-76.0,-119.0,-67.0,-46.0,-20.0,-82.0,-60.0,-69.0,-61.0,21.0,-29.0,0.0
16:15:01.881 12/08/2009,-101.0,-76.0,-1.0,-49.0,12.0,-37.0,-55.0,-95.0,-62.0,-17.0,-29.0,96.0,25.0,-29.0,-89.0,-34.0,20.0,21.0,17.0,-30.0,-68.0,-89.0,-249.0,-278.0,-158.0,-151.0,-133.0,-145.0,-192.0,-121.0,-114.0,-103.0,-47.0,-29.0,-22.0,-73.0,-112.0,-180.0,-59.0,-80.0,-54.0,-17.0,11.0,14.0,-344.0,-35.0,31.0,10.0,-24.0,30.0,10.0,31.0,26.0,-21.0,-62.0,-3.0,18.0,22.0,-13.0,13.0,2.0,10.0,97.0,34.0,0.0
16:15:01.888 12/08/2009,-74.0,-55.0,33.0,-8.0,64.0,10.0,-24.0,-42.0,-15.0,32.0,-3.0,149.0,97.0,28.0,-29.0,28.0,76.0,86.0,87.0,52.0,3.0,-128.0,-243.0,-262.0,-218.0,-139.0,-118.0,-118.0,-176.0,-110.0,-87.0,-89.0,-27.0,-1.0,6.0,-54.0,-93.0,-156.0,-89.0,-53.0,-25.0,30.0,39.0,51.0,-296.0,-3.0,95.0,52.0,29.0,70.0,46.0,67.0,60.0,8.0,-37.0,77.0,67.0,32.0,-10.0,-25.0,38.0,26.0,56.0,34.0,0.0
16:15:01.894 12/08/2009,-12.0,-43.0,13.0,-38.0,31.0,-12.0,-23.0,-19.0,-14.0,5.0,-69.0,114.0,69.0,20.0,-33.0,8.0,43.0,44.0,43.0,12.0,-42.0,-115.0,-273.0,-308.0,-234.0,-196.0,-168.0,-180.0,-211.0,-122.0,-115.0,-138.0,-90.0,-76.0,-69.0,-111.0,-143.0,-201.0,-26.0,-100.0,-53.0,11.0,21.0,-14.0,-324.0,-80.0,-5.0,-7.0,-60.0,-27.0,-55.0,-33.0,-30.0,-86.0,-127.0,-45.0,-29.0,-67.0,-100.0,-69.0,-63.0,-68.0,3.0,-39.0,0.0
16:15:01.900 12/08/2009,-144.0,-119.0,-53.0,-106.0,-48.0,-96.0,-103.0,-99.0,-90.0,-59.0,-70.0,45.0,-20.0,-63.0,-81.0,-46.0,-10.0,-11.0,-24.0,-60.0,-91.0,-115.0,-297.0,-336.0,-220.0,-231.0,-184.0,-195.0,-223.0,-112.0,-107.0,-128.0,-81.0,-67.0,-66.0,-117.0,-136.0,-200.0,-41.0,-92.0,-39.0,-120.0,33.0,37.0,-298.0,-44.0,54.0,16.0,-28.0,2.0,-27.0,-12.0,-16.0,-54.0,-74.0,10.0,16.0,-33.0,-51.0,-16.0,-3.0,8.0,74.0,69.0,0.0
16:15:01.906 12/08/2009,-34.0,-31.0,37.0,-8.0,32.0,-45.0,-39.0,3.0,1.0,34.0,-60.0,100.0,9.0,-35.0,17.0,47.0,79.0,62.0,32.0,-15.0,-46.0,-49.0,-196.0,-230.0,-129.0,-108.0,-87.0,-105.0,-139.0,-40.0,-26.0,-49.0,-5.0,5.0,3.0,-50.0,-72.0,-145.0,1.0,-102.0,42.0,-32.0,85.0,31.0,-270.0,-60.0,93.0,53.0,-3.0,20.0,-37.0,-36.0,-45.0,-84.0,-107.0,34.0,5.0,-66.0,-97.0,-53.0,-39.0,-43.0,4.0,-37.0,0.0
