Time and date,Fc5,Fc3,Fc1,Fcz,Fc2,Fc4,Fc6,C5,C3,C1,Cz,C2,C4,C6,Cp5,Cp3,Cp1,Cpz,Cp2,Cp4,Cp6,Fp1,Fpz,Fp2,Af7,Af3,Afz,Af4,Af8,F7,F5,F3,F1,Fz,F2,F4,F6,F8,Ft7,Ft8,T7,T8,T9,T10,Tp7,Tp8,P7,P5,P3,P1,Pz,P2,P4,P6,P8,Po7,Po3,Poz,Po4,Po8,O1,Oz,O2,Iz,EDF Annotations
16:15:00.000 12/08/2009,186.0,200.0,171.0,186.0,149.0,140.0,152.0,199.0,206.0,211.0,203.0,177.0,189.0,175.0,186.0,202.0,189.0,218.0,190.0,183.0,212.0,-84.0,-94.0,-110.0,-29.0,-77.0,11.0,145.0,-64.0,121.0,108.0,155.0,138.0,127.0,101.0,97.0,-39.0,56.0,193.0,192.0,213.0,209.0,215.0,182.0,203.0,203.0,183.0,186.0,181.0,192.0,198.0,212.0,203.0,190.0,186.0,180.0,174.0,196.0,197.0,164.0,159.0,153.0,140.0,129.0,12331.0
16:15:00.006 12/08/2009,193.0,217.0,192.0,213.0,187.0,180.0,191.0,207.0,221.0,227.0,222.0,205.0,229.0,214.0,191.0,209.0,206.0,238.0,213.0,214.0,246.0,-93.0,-106.0,-121.0,-35.0,-63.0,28.0,158.0,-175.0,124.0,116.0,162.0,147.0,139.0,123.0,127.0,16.0,48.0,194.0,201.0,219.0,201.0,220.0,235.0,201.0,220.0,180.0,185.0,177.0,196.0,202.0,222.0,211.0,205.0,199.0,177.0,171.0,201.0,204.0,165.0,153.0,149.0,142.0,119.0,12331.0
16:15:00.013 12/08/2009,181.0,200.0,182.0,203.0,188.0,178.0,190.0,195.0,208.0,216.0,216.0,202.0,228.0,219.0,182.0,200.0,204.0,233.0,213.0,221.0,260.0,-84.0,-101.0,-120.0,-35.0,-91.0,13.0,135.0,-98.0,115.0,101.0,145.0,129.0,121.0,106.0,110.0,-21.0,-39.0,186.0,194.0,219.0,216.0,220.0,241.0,210.0,242.0,194.0,199.0,191.0,209.0,219.0,240.0,230.0,234.0,232.0,204.0,200.0,230.0,235.0,212.0,178.0,180.0,172.0,154.0,5140.0
16:15:00.019 12/08/2009,181.0,198.0,176.0,199.0,192.0,183.0,193.0,210.0,213.0,222.0,223.0,211.0,238.0,228.0,204.0,219.0,217.0,243.0,228.0,231.0,274.0,-81.0,-111.0,-131.0,-40.0,-64.0,19.0,167.0,-102.0,122.0,104.0,144.0,126.0,122.0,106.0,109.0,-16.0,7.0,199.0,185.0,233.0,201.0,233.0,242.0,231.0,243.0,223.0,223.0,214.0,224.0,223.0,241.0,226.0,229.0,232.0,238.0,229.0,242.0,239.0,220.0,225.0,232.0,214.0,228.0,5140.0
16:15:00.025 12/08/2009,175.0,181.0,156.0,185.0,155.0,143.0,156.0,211.0,208.0,211.0,207.0,186.0,203.0,193.0,213.0,225.0,208.0,230.0,203.0,199.0,241.0,-82.0,-103.0,-121.0,-38.0,-113.0,11.0,150.0,-47.0,115.0,88.0,124.0,105.0,97.0,80.0,69.0,-70.0,65.0,196.0,177.0,234.0,197.0,237.0,214.0,235.0,209.0,225.0,221.0,213.0,217.0,206.0,216.0,200.0,191.0,195.0,227.0,218.0,223.0,208.0,183.0,240.0,242.0,214.0,244.0,11008.0
16:15:00.031 12/08/2009,178.0,179.0,154.0,180.0,146.0,137.0,148.0,220.0,216.0,211.0,206.0,182.0,189.0,174.0,221.0,228.0,205.0,223.0,191.0,185.0,220.0,-69.0,-88.0,-106.0,-36.0,-109.0,17.0,155.0,-47.0,128.0,102.0,135.0,117.0,109.0,92.0,88.0,-23.0,48.0,209.0,180.0,241.0,200.0,242.0,215.0,237.0,200.0,215.0,210.0,203.0,210.0,204.0,204.0,189.0,181.0,186.0,200.0,196.0,209.0,196.0,174.0,211.0,203.0,176.0,182.0,11008.0
16:15:00.038 12/08/2009,192.0,194.0,169.0,187.0,173.0,165.0,176.0,215.0,216.0,213.0,210.0,187.0,203.0,178.0,204.0,213.0,200.0,212.0,187.0,182.0,212.0,-72.0,-105.0,-122.0,-45.0,-92.0,27.0,196.0,-97.0,134.0,115.0,150.0,135.0,127.0,110.0,106.0,5.0,36.0,216.0,171.0,235.0,195.0,233.0,221.0,221.0,191.0,190.0,189.0,182.0,194.0,188.0,193.0,175.0,162.0,158.0,175.0,175.0,185.0,169.0,138.0,166.0,150.0,127.0,112.0,5424.0
16:15:00.044 12/08/2009,213.0,220.0,192.0,201.0,176.0,167.0,180.0,225.0,227.0,226.0,218.0,197.0,218.0,193.0,202.0,213.0,206.0,224.0,199.0,197.0,225.0,-52.0,-67.0,-83.0,-18.0,-69.0,46.0,208.0,-26.0,152.0,145.0,180.0,165.0,146.0,125.0,120.0,4.0,81.0,222.0,217.0,234.0,220.0,222.0,228.0,223.0,218.0,203.0,200.0,193.0,211.0,206.0,219.0,208.0,197.0,196.0,201.0,193.0,209.0,203.0,179.0,154.0,139.0,115.0,110.0,5424.0
16:15:00.050 12/08/2009,213.0,230.0,202.0,220.0,206.0,196.0,209.0,221.0,232.0,238.0,232.0,217.0,240.0,228.0,195.0,214.0,218.0,243.0,221.0,228.0,261.0,-61.0,-102.0,-122.0,-38.0,-63.0,44.0,253.0,-150.0,140.0,132.0,173.0,157.0,144.0,139.0,151.0,65.0,36.0,201.0,233.0,226.0,242.0,189.0,229.0,206.0,243.0,199.0,201.0,194.0,215.0,218.0,233.0,234.0,222.0,221.0,204.0,194.0,224.0,230.0,202.0,174.0,171.0,148.0,154.0,12342.0
16:15:00.056 12/08/2009,187.0,210.0,185.0,207.0,211.0,201.0,212.0,208.0,224.0,233.0,234.0,218.0,250.0,247.0,197.0,221.0,224.0,247.0,235.0,247.0,280.0,-78.0,-108.0,-125.0,-52.0,-53.0,30.0,206.0,-47.0,122.0,120.0,163.0,150.0,137.0,130.0,136.0,7.0,-21.0,195.0,230.0,219.0,248.0,211.0,254.0,228.0,261.0,222.0,232.0,224.0,243.0,239.0,261.0,257.0,243.0,246.0,231.0,229.0,259.0,256.0,230.0,212.0,216.0,195.0,199.0,12342.0
16:15:00.063 12/08/2009,194.0,225.0,203.0,220.0,218.0,208.0,219.0,233.0,255.0,260.0,261.0,238.0,265.0,249.0,234.0,259.0,258.0,274.0,255.0,258.0,288.0,-78.0,-86.0,-102.0,-33.0,-52.0,53.0,251.0,-16.0,126.0,130.0,177.0,166.0,158.0,148.0,155.0,44.0,161.0,208.0,232.0,236.0,236.0,213.0,239.0,248.0,252.0,234.0,258.0,252.0,267.0,253.0,267.0,259.0,235.0,233.0,244.0,248.0,263.0,248.0,219.0,241.0,238.0,215.0,205.0,12846.0
16:15:00.069 12/08/2009,212.0,241.0,218.0,239.0,230.0,220.0,229.0,254.0,272.0,276.0,273.0,243.0,259.0,233.0,256.0,281.0,272.0,279.0,251.0,242.0,263.0,-43.0,-58.0,-76.0,1.0,-83.0,51.0,235.0,-77.0,152.0,136.0,183.0,166.0,154.0,143.0,138.0,9.0,104.0,234.0,207.0,263.0,215.0,228.0,201.0,266.0,218.0,245.0,263.0,257.0,265.0,243.0,255.0,237.0,211.0,208.0,253.0,250.0,250.0,234.0,202.0,245.0,228.0,200.0,189.0,12846.0
16:15:00.075 12/08/2009,225.0,246.0,219.0,233.0,194.0,183.0,194.0,261.0,274.0,276.0,263.0,227.0,232.0,203.0,261.0,280.0,262.0,275.0,241.0,231.0,248.0,-37.0,-45.0,-65.0,-5.0,-60.0,57.0,216.0,36.0,170.0,150.0,192.0,168.0,151.0,125.0,108.0,-52.0,58.0,246.0,181.0,268.0,194.0,234.0,215.0,265.0,210.0,238.0,250.0,241.0,250.0,234.0,249.0,231.0,212.0,206.0,230.0,234.0,253.0,238.0,215.0,234.0,218.0,189.0,187.0,21524.0
16:15:00.081 12/08/2009,214.0,234.0,210.0,222.0,190.0,179.0,192.0,238.0,249.0,249.0,241.0,209.0,225.0,198.0,236.0,248.0,232.0,247.0,222.0,213.0,240.0,-63.0,-79.0,-97.0,-17.0,-60.0,54.0,263.0,-14.0,146.0,131.0,173.0,152.0,139.0,125.0,121.0,17.0,45.0,210.0,190.0,232.0,200.0,205.0,204.0,244.0,215.0,221.0,223.0,216.0,225.0,222.0,240.0,225.0,213.0,210.0,222.0,225.0,254.0,244.0,227.0,228.0,225.0,202.0,207.0,21524.0
16:15:00.088 12/08/2009,186.0,206.0,176.0,197.0,177.0,167.0,179.0,215.0,219.0,218.0,215.0,188.0,213.0,199.0,218.0,225.0,211.0,221.0,208.0,210.0,243.0,-70.0,-81.0,-99.0,-16.0,-74.0,39.0,244.0,-22.0,133.0,119.0,161.0,140.0,128.0,115.0,114.0,23.0,72.0,203.0,201.0,230.0,223.0,205.0,235.0,250.0,238.0,244.0,230.0,224.0,230.0,230.0,248.0,240.0,235.0,240.0,254.0,243.0,275.0,263.0,244.0,246.0,251.0,227.0,234.0,5168.0
16:15:00.094 12/08/2009,201.0,215.0,185.0,208.0,193.0,185.0,195.0,229.0,232.0,231.0,229.0,209.0,237.0,225.0,229.0,235.0,224.0,239.0,228.0,232.0,274.0,-48.0,-71.0,-92.0,0.0,-50.0,53.0,252.0,-73.0,145.0,132.0,177.0,157.0,150.0,137.0,143.0,64.0,34.0,211.0,209.0,231.0,223.0,211.0,261.0,248.0,251.0,222.0,219.0,211.0,224.0,232.0,253.0,249.0,241.0,240.0,217.0,216.0,256.0,251.0,232.0,246.0,243.0,223.0,205.0,5168.0
16:15:00.100 12/08/2009,200.0,221.0,199.0,216.0,215.0,208.0,218.0,221.0,234.0,239.0,239.0,227.0,253.0,240.0,213.0,222.0,220.0,246.0,231.0,241.0,277.0,-58.0,-79.0,-96.0,-17.0,-38.0,55.0,253.0,-186.0,136.0,125.0,179.0,161.0,157.0,144.0,145.0,50.0,58.0,199.0,222.0,214.0,229.0,197.0,254.0,234.0,249.0,213.0,217.0,212.0,224.0,232.0,253.0,242.0,233.0,231.0,220.0,223.0,255.0,244.0,222.0,230.0,222.0,206.0,182.0,0.0
16:15:00.106 12/08/2009,195.0,225.0,206.0,221.0,207.0,198.0,209.0,220.0,242.0,249.0,244.0,232.0,254.0,235.0,225.0,237.0,235.0,258.0,239.0,251.0,279.0,-58.0,-42.0,-54.0,-20.0,-34.0,62.0,261.0,21.0,140.0,135.0,188.0,173.0,163.0,139.0,130.0,-10.0,124.0,208.0,221.0,230.0,242.0,218.0,249.0,247.0,261.0,243.0,244.0,238.0,245.0,246.0,263.0,252.0,245.0,247.0,246.0,241.0,271.0,258.0,237.0,233.0,229.0,210.0,213.0,0.0
16:15:00.113 12/08/2009,212.0,237.0,220.0,239.0,213.0,202.0,215.0,228.0,252.0,265.0,257.0,239.0,255.0,241.0,234.0,248.0,248.0,268.0,241.0,248.0,278.0,-35.0,-33.0,-48.0,6.0,-60.0,73.0,272.0,-23.0,149.0,143.0,191.0,180.0,174.0,149.0,139.0,2.0,77.0,216.0,217.0,237.0,232.0,228.0,233.0,247.0,246.0,221.0,232.0,223.0,236.0,229.0,241.0,232.0,219.0,216.0,208.0,208.0,244.0,225.0,194.0,213.0,212.0,195.0,192.0,0.0
16:15:00.119 12/08/2009,215.0,240.0,223.0,246.0,213.0,204.0,213.0,234.0,252.0,265.0,258.0,232.0,240.0,223.0,237.0,251.0,247.0,268.0,231.0,233.0,262.0,-28.0,-33.0,-50.0,6.0,-41.0,82.0,278.0,-32.0,161.0,155.0,200.0,187.0,183.0,162.0,153.0,27.0,70.0,231.0,209.0,251.0,229.0,232.0,236.0,263.0,249.0,249.0,253.0,247.0,254.0,238.0,259.0,242.0,238.0,243.0,251.0,249.0,277.0,254.0,232.0,210.0,211.0,198.0,182.0,0.0
16:15:00.125 12/08/2009,220.0,243.0,228.0,252.0,227.0,218.0,228.0,246.0,262.0,272.0,268.0,248.0,252.0,233.0,263.0,275.0,266.0,288.0,256.0,255.0,282.0,-24.0,-40.0,-57.0,10.0,-13.0,92.0,304.0,-69.0,161.0,159.0,204.0,196.0,192.0,182.0,194.0,121.0,106.0,232.0,227.0,261.0,235.0,218.0,243.0,271.0,262.0,275.0,271.0,261.0,265.0,246.0,272.0,254.0,248.0,258.0,270.0,263.0,288.0,266.0,250.0,238.0,242.0,227.0,218.0,0.0
16:15:00.131 12/08/2009,223.0,240.0,224.0,248.0,242.0,231.0,242.0,246.0,257.0,262.0,259.0,247.0,254.0,237.0,253.0,261.0,252.0,272.0,246.0,243.0,269.0,-7.0,-28.0,-45.0,29.0,10.0,95.0,308.0,-45.0,176.0,172.0,213.0,200.0,193.0,181.0,186.0,98.0,64.0,243.0,225.0,259.0,236.0,244.0,238.0,277.0,253.0,275.0,267.0,259.0,263.0,248.0,268.0,251.0,244.0,251.0,282.0,272.0,296.0,269.0,250.0,269.0,274.0,249.0,268.0,0.0
16:15:00.138 12/08/2009,241.0,257.0,239.0,253.0,231.0,220.0,231.0,263.0,273.0,277.0,269.0,254.0,258.0,230.0,265.0,273.0,263.0,282.0,254.0,249.0,271.0,26.0,13.0,-1.0,49.0,32.0,114.0,326.0,5.0,196.0,193.0,228.0,216.0,209.0,182.0,177.0,58.0,120.0,259.0,213.0,265.0,236.0,264.0,261.0,282.0,251.0,277.0,268.0,259.0,266.0,246.0,271.0,247.0,245.0,241.0,263.0,257.0,285.0,259.0,238.0,277.0,280.0,253.0,286.0,0.0
16:15:00.144 12/08/2009,248.0,265.0,248.0,259.0,245.0,237.0,248.0,258.0,271.0,278.0,272.0,252.0,265.0,234.0,249.0,258.0,251.0,272.0,240.0,238.0,261.0,39.0,30.0,18.0,71.0,42.0,113.0,305.0,56.0,198.0,189.0,218.0,209.0,206.0,186.0,190.0,95.0,122.0,249.0,224.0,249.0,231.0,242.0,244.0,235.0,228.0,206.0,214.0,205.0,219.0,204.0,228.0,213.0,202.0,196.0,173.0,181.0,229.0,209.0,182.0,217.0,216.0,201.0,203.0,0.0
16:15:00.150 12/08/2009,223.0,240.0,226.0,240.0,221.0,211.0,222.0,224.0,239.0,245.0,248.0,226.0,243.0,221.0,204.0,222.0,218.0,243.0,219.0,218.0,253.0,-11.0,15.0,6.0,25.0,10.0,81.0,260.0,24.0,152.0,156.0,193.0,179.0,170.0,153.0,146.0,25.0,99.0,207.0,227.0,214.0,246.0,201.0,229.0,204.0,243.0,180.0,197.0,192.0,212.0,207.0,235.0,232.0,229.0,228.0,185.0,190.0,243.0,237.0,220.0,166.0,174.0,176.0,157.0,0.0
16:15:00.156 12/08/2009,203.0,224.0,210.0,219.0,209.0,200.0,211.0,215.0,234.0,241.0,247.0,227.0,254.0,239.0,210.0,228.0,227.0,254.0,241.0,247.0,284.0,-44.0,-34.0,-50.0,6.0,-16.0,78.0,284.0,-48.0,143.0,149.0,193.0,182.0,175.0,166.0,174.0,64.0,22.0,209.0,238.0,222.0,246.0,202.0,270.0,221.0,261.0,206.0,220.0,213.0,234.0,229.0,257.0,253.0,244.0,242.0,207.0,213.0,256.0,250.0,226.0,172.0,183.0,188.0,166.0,0.0
16:15:00.163 12/08/2009,224.0,246.0,233.0,244.0,251.0,244.0,254.0,240.0,259.0,260.0,265.0,247.0,286.0,266.0,235.0,255.0,248.0,270.0,256.0,263.0,297.0,-24.0,-36.0,-53.0,41.0,1.0,102.0,312.0,-69.0,166.0,173.0,208.0,195.0,190.0,182.0,194.0,108.0,105.0,223.0,252.0,245.0,244.0,215.0,266.0,244.0,271.0,230.0,240.0,233.0,248.0,238.0,262.0,258.0,253.0,248.0,229.0,234.0,268.0,259.0,240.0,209.0,218.0,215.0,204.0,0.0
16:15:00.169 12/08/2009,220.0,233.0,217.0,230.0,218.0,208.0,219.0,241.0,255.0,248.0,251.0,237.0,269.0,249.0,242.0,257.0,244.0,263.0,247.0,262.0,294.0,-33.0,-16.0,-29.0,20.0,-30.0,74.0,277.0,-60.0,137.0,143.0,183.0,166.0,161.0,137.0,143.0,33.0,171.0,196.0,229.0,233.0,257.0,193.0,251.0,241.0,270.0,246.0,250.0,243.0,251.0,236.0,262.0,259.0,257.0,252.0,249.0,248.0,275.0,262.0,247.0,246.0,248.0,240.0,236.0,0.0
16:15:00.175 12/08/2009,192.0,213.0,198.0,210.0,202.0,191.0,204.0,216.0,239.0,237.0,244.0,233.0,261.0,241.0,228.0,242.0,239.0,264.0,246.0,259.0,293.0,-68.0,-50.0,-65.0,-22.0,-36.0,64.0,270.0,-119.0,104.0,115.0,167.0,156.0,150.0,127.0,134.0,22.0,62.0,174.0,215.0,212.0,250.0,180.0,240.0,225.0,269.0,232.0,241.0,235.0,251.0,246.0,270.0,266.0,266.0,259.0,228.0,233.0,277.0,272.0,254.0,246.0,243.0,242.0,215.0,0.0
16:15:00.181 12/08/2009,180.0,211.0,197.0,211.0,204.0,195.0,206.0,212.0,238.0,246.0,259.0,247.0,271.0,252.0,224.0,240.0,250.0,278.0,261.0,270.0,305.0,-85.0,-56.0,-69.0,-34.0,-43.0,61.0,244.0,-144.0,103.0,109.0,162.0,149.0,146.0,125.0,131.0,29.0,62.0,180.0,214.0,211.0,226.0,188.0,265.0,227.0,274.0,237.0,235.0,228.0,245.0,247.0,267.0,263.0,266.0,260.0,227.0,224.0,267.0,270.0,251.0,230.0,231.0,237.0,201.0,0.0
16:15:00.188 12/08/2009,169.0,187.0,172.0,183.0,184.0,175.0,185.0,192.0,209.0,211.0,225.0,210.0,235.0,221.0,196.0,204.0,210.0,234.0,220.0,233.0,272.0,-77.0,-34.0,-47.0,-11.0,-16.0,56.0,243.0,-33.0,128.0,117.0,147.0,135.0,127.0,107.0,114.0,20.0,70.0,197.0,207.0,213.0,225.0,206.0,246.0,214.0,246.0,213.0,207.0,201.0,218.0,221.0,239.0,231.0,235.0,233.0,216.0,212.0,240.0,244.0,228.0,210.0,216.0,221.0,203.0,0.0
16:15:00.194 12/08/2009,186.0,193.0,175.0,176.0,182.0,172.0,184.0,205.0,219.0,221.0,222.0,211.0,233.0,215.0,208.0,217.0,221.0,242.0,228.0,239.0,274.0,-36.0,-22.0,-36.0,27.0,-22.0,72.0,261.0,-26.0,158.0,142.0,169.0,158.0,147.0,133.0,138.0,25.0,97.0,219.0,213.0,233.0,234.0,216.0,239.0,234.0,267.0,240.0,238.0,231.0,247.0,254.0,271.0,266.0,272.0,276.0,250.0,247.0,276.0,282.0,281.0,228.0,238.0,239.0,249.0,0.0
16:15:00.200 12/08/2009,205.0,221.0,205.0,207.0,215.0,205.0,218.0,223.0,246.0,251.0,248.0,238.0,262.0,243.0,220.0,236.0,248.0,267.0,244.0,255.0,286.0,-42.0,-31.0,-44.0,2.0,-15.0,84.0,265.0,-46.0,142.0,140.0,186.0,177.0,174.0,163.0,174.0,81.0,100.0,201.0,212.0,218.0,230.0,189.0,254.0,219.0,259.0,218.0,227.0,218.0,231.0,241.0,254.0,245.0,240.0,238.0,215.0,213.0,251.0,246.0,225.0,234.0,243.0,240.0,241.0,0.0
16:15:00.206 12/08/2009,196.0,226.0,213.0,216.0,232.0,223.0,235.0,217.0,242.0,248.0,248.0,233.0,254.0,237.0,209.0,227.0,238.0,253.0,223.0,232.0,256.0,-36.0,-20.0,-34.0,2.0,-6.0,103.0,284.0,-47.0,137.0,144.0,195.0,190.0,188.0,185.0,204.0,121.0,76.0,203.0,232.0,218.0,234.0,196.0,225.0,222.0,229.0,212.0,218.0,210.0,217.0,223.0,230.0,216.0,203.0,203.0,211.0,205.0,235.0,215.0,185.0,221.0,217.0,208.0,190.0,0.0
16:15:00.213 12/08/2009,202.0,229.0,220.0,224.0,230.0,220.0,232.0,216.0,240.0,247.0,249.0,228.0,245.0,223.0,214.0,225.0,229.0,246.0,216.0,220.0,245.0,-34.0,-5.0,-19.0,6.0,-2.0,107.0,291.0,5.0,137.0,140.0,191.0,183.0,176.0,168.0,169.0,54.0,135.0,204.0,225.0,219.0,218.0,197.0,253.0,227.0,222.0,208.0,210.0,205.0,209.0,203.0,214.0,209.0,204.0,208.0,205.0,203.0,230.0,218.0,206.0,205.0,199.0,191.0,173.0,0.0
16:15:00.219 12/08/2009,199.0,219.0,202.0,211.0,197.0,186.0,198.0,219.0,226.0,225.0,227.0,206.0,222.0,201.0,214.0,219.0,213.0,230.0,204.0,209.0,235.0,-41.0,-11.0,-24.0,-10.0,-5.0,96.0,271.0,-68.0,150.0,146.0,188.0,175.0,165.0,158.0,156.0,54.0,99.0,221.0,208.0,246.0,202.0,222.0,247.0,249.0,234.0,229.0,227.0,221.0,228.0,216.0,226.0,224.0,221.0,223.0,227.0,224.0,247.0,238.0,231.0,213.0,216.0,214.0,212.0,0.0
16:15:00.225 12/08/2009,212.0,222.0,202.0,211.0,201.0,191.0,202.0,236.0,237.0,235.0,225.0,213.0,228.0,214.0,234.0,236.0,225.0,239.0,217.0,222.0,249.0,-46.0,-49.0,-68.0,12.0,-23.0,87.0,266.0,-134.0,159.0,146.0,177.0,165.0,155.0,156.0,155.0,84.0,80.0,218.0,212.0,254.0,231.0,228.0,219.0,259.0,232.0,248.0,236.0,228.0,235.0,219.0,228.0,221.0,211.0,203.0,243.0,230.0,245.0,220.0,197.0,231.0,232.0,222.0,239.0,0.0
16:15:00.231 12/08/2009,208.0,209.0,187.0,187.0,186.0,176.0,187.0,231.0,234.0,230.0,222.0,209.0,228.0,218.0,235.0,237.0,228.0,244.0,219.0,220.0,251.0,-42.0,-32.0,-45.0,21.0,-20.0,68.0,227.0,-96.0,165.0,149.0,173.0,159.0,144.0,131.0,128.0,26.0,47.0,227.0,205.0,265.0,217.0,228.0,246.0,266.0,237.0,258.0,245.0,238.0,245.0,239.0,241.0,239.0,224.0,218.0,251.0,236.0,259.0,231.0,208.0,242.0,234.0,211.0,234.0,0.0
16:15:00.238 12/08/2009,214.0,220.0,197.0,194.0,198.0,190.0,200.0,238.0,245.0,244.0,250.0,231.0,247.0,234.0,231.0,238.0,236.0,261.0,231.0,234.0,267.0,-32.0,-14.0,-26.0,30.0,-33.0,74.0,202.0,-86.0,156.0,140.0,173.0,164.0,151.0,142.0,142.0,31.0,92.0,216.0,213.0,237.0,230.0,226.0,258.0,244.0,249.0,235.0,230.0,223.0,231.0,234.0,247.0,242.0,233.0,234.0,225.0,219.0,251.0,240.0,223.0,229.0,220.0,202.0,203.0,0.0
16:15:00.244 12/08/2009,190.0,206.0,190.0,191.0,208.0,197.0,208.0,216.0,236.0,239.0,252.0,233.0,251.0,239.0,220.0,232.0,238.0,261.0,235.0,244.0,279.0,-52.0,-30.0,-45.0,2.0,-42.0,77.0,253.0,-8.0,135.0,124.0,164.0,158.0,149.0,144.0,146.0,35.0,127.0,193.0,235.0,211.0,253.0,219.0,248.0,242.0,274.0,246.0,245.0,240.0,250.0,246.0,270.0,269.0,265.0,266.0,262.0,252.0,282.0,281.0,270.0,235.0,237.0,231.0,218.0,0.0
16:15:00.250 12/08/2009,194.0,214.0,195.0,196.0,219.0,210.0,220.0,228.0,244.0,251.0,254.0,249.0,271.0,267.0,237.0,253.0,257.0,276.0,260.0,271.0,311.0,-62.0,-41.0,-59.0,-13.0,-15.0,97.0,278.0,15.0,147.0,146.0,188.0,181.0,177.0,177.0,187.0,78.0,86.0,213.0,258.0,231.0,283.0,236.0,259.0,267.0,311.0,282.0,281.0,274.0,288.0,286.0,306.0,306.0,306.0,305.0,303.0,291.0,317.0,320.0,315.0,276.0,289.0,290.0,279.0,0.0
16:15:00.256 12/08/2009,225.0,248.0,233.0,236.0,267.0,259.0,269.0,260.0,277.0,282.0,283.0,281.0,312.0,303.0,269.0,284.0,280.0,303.0,287.0,304.0,341.0,-48.0,-42.0,-60.0,-9.0,-3.0,119.0,269.0,-13.0,172.0,174.0,218.0,211.0,201.0,201.0,206.0,113.0,149.0,239.0,270.0,259.0,276.0,261.0,291.0,285.0,310.0,289.0,285.0,277.0,284.0,284.0,301.0,301.0,299.0,298.0,290.0,277.0,306.0,305.0,291.0,299.0,312.0,314.0,308.0,0.0
16:15:00.263 12/08/2009,243.0,256.0,233.0,234.0,243.0,232.0,242.0,274.0,280.0,280.0,278.0,268.0,291.0,274.0,276.0,282.0,279.0,295.0,275.0,285.0,318.0,-18.0,8.0,-2.0,27.0,-17.0,106.0,232.0,24.0,199.0,184.0,210.0,197.0,180.0,173.0,168.0,56.0,155.0,259.0,241.0,285.0,258.0,277.0,268.0,296.0,294.0,298.0,289.0,285.0,284.0,286.0,301.0,301.0,290.0,288.0,309.0,293.0,330.0,309.0,292.0,299.0,310.0,306.0,313.0,0.0
16:15:00.269 12/08/2009,248.0,251.0,221.0,221.0,235.0,226.0,237.0,282.0,280.0,281.0,281.0,273.0,287.0,276.0,289.0,291.0,284.0,301.0,279.0,291.0,319.0,-14.0,-26.0,-42.0,23.0,-36.0,96.0,208.0,-83.0,188.0,173.0,203.0,189.0,177.0,182.0,187.0,102.0,106.0,253.0,245.0,289.0,269.0,270.0,247.0,303.0,293.0,306.0,296.0,289.0,294.0,296.0,305.0,297.0,287.0,280.0,308.0,293.0,334.0,308.0,287.0,298.0,312.0,293.0,317.0,0.0
16:15:00.275 12/08/2009,240.0,251.0,225.0,224.0,238.0,229.0,239.0,274.0,277.0,281.0,289.0,271.0,281.0,269.0,278.0,281.0,275.0,299.0,278.0,288.0,312.0,-15.0,-22.0,-35.0,29.0,6.0,112.0,219.0,-45.0,182.0,178.0,217.0,204.0,190.0,187.0,184.0,87.0,105.0,239.0,233.0,275.0,256.0,263.0,267.0,282.0,288.0,273.0,276.0,268.0,280.0,286.0,294.0,293.0,284.0,277.0,269.0,268.0,324.0,304.0,290.0,284.0,299.0,282.0,289.0,0.0
16:15:00.281 12/08/2009,229.0,253.0,231.0,224.0,233.0,223.0,233.0,254.0,265.0,273.0,283.0,262.0,274.0,262.0,256.0,260.0,259.0,288.0,267.0,276.0,303.0,-22.0,-17.0,-29.0,19.0,31.0,113.0,215.0,18.0,174.0,180.0,226.0,214.0,195.0,185.0,173.0,52.0,101.0,232.0,230.0,266.0,249.0,252.0,263.0,270.0,284.0,269.0,272.0,267.0,278.0,290.0,293.0,295.0,293.0,287.0,281.0,280.0,337.0,317.0,312.0,279.0,295.0,290.0,274.0,0.0
16:15:00.288 12/08/2009,244.0,275.0,251.0,241.0,250.0,243.0,252.0,271.0,284.0,294.0,300.0,280.0,296.0,277.0,272.0,284.0,279.0,307.0,286.0,292.0,317.0,8.0,6.0,-6.0,38.0,49.0,141.0,239.0,-6.0,208.0,215.0,263.0,257.0,241.0,229.0,222.0,101.0,171.0,270.0,258.0,294.0,271.0,282.0,271.0,301.0,302.0,311.0,310.0,306.0,318.0,331.0,332.0,324.0,316.0,306.0,329.0,322.0,366.0,342.0,331.0,308.0,318.0,317.0,307.0,0.0
16:15:00.294 12/08/2009,291.0,329.0,307.0,298.0,315.0,307.0,318.0,322.0,339.0,352.0,359.0,335.0,346.0,315.0,313.0,332.0,332.0,357.0,332.0,329.0,347.0,42.0,26.0,14.0,68.0,80.0,192.0,312.0,45.0,234.0,251.0,300.0,291.0,284.0,285.0,284.0,190.0,194.0,287.0,282.0,308.0,280.0,293.0,271.0,314.0,310.0,316.0,322.0,315.0,329.0,344.0,341.0,330.0,311.0,299.0,316.0,312.0,358.0,332.0,316.0,334.0,340.0,334.0,342.0,0.0
16:15:00.300 12/08/2009,301.0,334.0,315.0,305.0,323.0,312.0,323.0,314.0,338.0,343.0,345.0,312.0,323.0,297.0,294.0,312.0,316.0,328.0,295.0,288.0,306.0,48.0,27.0,17.0,74.0,93.0,185.0,331.0,18.0,235.0,254.0,293.0,275.0,265.0,266.0,263.0,185.0,165.0,280.0,268.0,287.0,248.0,281.0,273.0,282.0,266.0,264.0,270.0,262.0,268.0,277.0,272.0,259.0,248.0,238.0,253.0,249.0,293.0,265.0,246.0,299.0,299.0,290.0,301.0,0.0
16:15:00.306 12/08/2009,282.0,307.0,280.0,261.0,271.0,261.0,271.0,279.0,303.0,297.0,285.0,258.0,267.0,253.0,256.0,271.0,271.0,277.0,241.0,239.0,265.0,50.0,39.0,27.0,72.0,84.0,172.0,296.0,19.0,224.0,241.0,280.0,261.0,244.0,236.0,236.0,164.0,155.0,262.0,265.0,257.0,261.0,263.0,277.0,257.0,256.0,237.0,244.0,241.0,252.0,257.0,252.0,241.0,236.0,224.0,240.0,235.0,282.0,248.0,231.0,246.0,243.0,230.0,241.0,0.0
16:15:00.313 12/08/2009,272.0,308.0,286.0,260.0,289.0,279.0,288.0,272.0,302.0,303.0,296.0,275.0,285.0,276.0,258.0,278.0,283.0,290.0,259.0,264.0,288.0,44.0,32.0,22.0,65.0,97.0,182.0,278.0,-61.0,216.0,235.0,281.0,271.0,252.0,250.0,254.0,180.0,97.0,252.0,263.0,251.0,274.0,256.0,274.0,260.0,275.0,251.0,263.0,259.0,279.0,284.0,282.0,269.0,258.0,245.0,261.0,261.0,301.0,269.0,250.0,235.0,232.0,211.0,224.0,0.0
16:15:00.319 12/08/2009,257.0,291.0,275.0,252.0,263.0,253.0,261.0,261.0,294.0,303.0,301.0,284.0,285.0,277.0,258.0,280.0,291.0,303.0,275.0,284.0,305.0,32.0,35.0,27.0,53.0,30.0,155.0,214.0,-26.0,189.0,209.0,259.0,247.0,232.0,212.0,199.0,77.0,202.0,238.0,263.0,260.0,279.0,228.0,262.0,263.0,294.0,263.0,283.0,277.0,291.0,300.0,304.0,293.0,284.0,275.0,280.0,282.0,320.0,297.0,274.0,267.0,266.0,243.0,255.0,0.0
16:15:00.325 12/08/2009,257.0,293.0,273.0,258.0,259.0,250.0,259.0,275.0,304.0,311.0,315.0,305.0,297.0,282.0,283.0,300.0,305.0,320.0,290.0,300.0,324.0,31.0,18.0,3.0,56.0,41.0,154.0,245.0,37.0,202.0,214.0,256.0,241.0,234.0,221.0,207.0,81.0,172.0,248.0,249.0,271.0,271.0,256.0,279.0,290.0,301.0,282.0,296.0,288.0,297.0,300.0,308.0,304.0,292.0,285.0,294.0,291.0,328.0,305.0,286.0,300.0,298.0,278.0,276.0,0.0
16:15:00.331 12/08/2009,249.0,274.0,256.0,248.0,266.0,257.0,266.0,268.0,291.0,296.0,305.0,300.0,299.0,291.0,285.0,295.0,297.0,309.0,287.0,303.0,334.0,12.0,-16.0,-31.0,33.0,22.0,138.0,237.0,3.0,191.0,190.0,224.0,215.0,209.0,215.0,210.0,100.0,123.0,238.0,248.0,263.0,274.0,252.0,274.0,289.0,312.0,276.0,287.0,281.0,287.0,284.0,305.0,301.0,298.0,293.0,285.0,284.0,331.0,309.0,300.0,311.0,313.0,300.0,291.0,0.0
16:15:00.338 12/08/2009,221.0,232.0,216.0,213.0,249.0,238.0,247.0,244.0,259.0,259.0,262.0,265.0,275.0,276.0,261.0,267.0,264.0,276.0,255.0,275.0,308.0,-30.0,-39.0,-51.0,-2.0,-30.0,108.0,188.0,60.0,163.0,156.0,188.0,182.0,174.0,187.0,187.0,116.0,122.0,220.0,239.0,254.0,258.0,232.0,249.0,269.0,277.0,251.0,256.0,252.0,253.0,248.0,267.0,263.0,253.0,247.0,249.0,249.0,291.0,263.0,248.0,277.0,277.0,274.0,250.0,0.0
16:15:00.344 12/08/2009,216.0,224.0,204.0,191.0,219.0,210.0,218.0,248.0,251.0,251.0,241.0,251.0,255.0,252.0,265.0,266.0,254.0,262.0,240.0,259.0,287.0,-21.0,11.0,3.0,7.0,36.0,105.0,155.0,19.0,184.0,183.0,204.0,197.0,173.0,166.0,158.0,79.0,128.0,240.0,243.0,272.0,248.0,246.0,262.0,289.0,265.0,276.0,274.0,271.0,266.0,266.0,276.0,264.0,251.0,247.0,275.0,273.0,306.0,267.0,247.0,253.0,244.0,233.0,210.0,0.0
16:15:00.350 12/08/2009,244.0,248.0,224.0,205.0,216.0,207.0,215.0,263.0,274.0,271.0,266.0,268.0,260.0,256.0,280.0,284.0,278.0,282.0,258.0,269.0,293.0,17.0,32.0,25.0,38.0,15.0,106.0,156.0,-63.0,198.0,192.0,216.0,204.0,185.0,173.0,159.0,52.0,122.0,238.0,239.0,273.0,249.0,240.0,249.0,288.0,271.0,288.0,292.0,288.0,289.0,291.0,291.0,278.0,264.0,254.0,292.0,288.0,326.0,287.0,263.0,267.0,254.0,230.0,224.0,0.0
16:15:00.356 12/08/2009,246.0,252.0,232.0,217.0,229.0,221.0,229.0,260.0,282.0,284.0,289.0,284.0,270.0,262.0,281.0,294.0,294.0,305.0,272.0,278.0,297.0,33.0,26.0,17.0,53.0,2.0,121.0,169.0,33.0,193.0,193.0,223.0,213.0,199.0,195.0,180.0,84.0,137.0,237.0,238.0,273.0,253.0,247.0,248.0,287.0,267.0,290.0,299.0,293.0,294.0,294.0,295.0,280.0,266.0,257.0,294.0,288.0,326.0,289.0,272.0,290.0,281.0,254.0,263.0,0.0
16:15:00.363 12/08/2009,243.0,258.0,241.0,230.0,240.0,232.0,241.0,263.0,282.0,289.0,296.0,285.0,275.0,260.0,279.0,295.0,296.0,308.0,275.0,281.0,301.0,27.0,18.0,8.0,64.0,42.0,139.0,191.0,14.0,199.0,199.0,229.0,218.0,205.0,203.0,192.0,109.0,130.0,246.0,230.0,274.0,248.0,251.0,260.0,281.0,271.0,278.0,286.0,282.0,281.0,279.0,290.0,279.0,271.0,266.0,280.0,268.0,314.0,287.0,275.0,290.0,287.0,270.0,275.0,0.0
16:15:00.369 12/08/2009,246.0,261.0,244.0,232.0,243.0,234.0,243.0,259.0,268.0,270.0,277.0,268.0,259.0,246.0,257.0,267.0,265.0,280.0,249.0,256.0,281.0,31.0,14.0,2.0,71.0,59.0,140.0,194.0,-50.0,201.0,198.0,228.0,218.0,202.0,205.0,205.0,143.0,95.0,245.0,221.0,269.0,227.0,240.0,256.0,259.0,240.0,242.0,244.0,241.0,241.0,236.0,252.0,239.0,235.0,225.0,239.0,223.0,269.0,248.0,232.0,255.0,256.0,250.0,243.0,0.0
16:15:00.375 12/08/2009,233.0,244.0,230.0,217.0,230.0,221.0,229.0,246.0,252.0,252.0,254.0,246.0,236.0,225.0,234.0,244.0,243.0,257.0,224.0,237.0,260.0,19.0,10.0,2.0,74.0,53.0,138.0,190.0,-2.0,200.0,195.0,228.0,217.0,205.0,204.0,195.0,101.0,131.0,247.0,227.0,269.0,227.0,242.0,258.0,260.0,244.0,256.0,256.0,253.0,255.0,253.0,260.0,253.0,250.0,250.0,269.0,252.0,287.0,269.0,267.0,240.0,243.0,240.0,238.0,0.0
16:15:00.381 12/08/2009,254.0,272.0,257.0,248.0,248.0,243.0,250.0,278.0,292.0,293.0,290.0,281.0,270.0,254.0,268.0,285.0,285.0,293.0,259.0,271.0,293.0,46.0,51.0,45.0,101.0,71.0,167.0,214.0,117.0,222.0,220.0,254.0,241.0,231.0,224.0,213.0,107.0,193.0,262.0,256.0,275.0,266.0,253.0,259.0,267.0,260.0,263.0,267.0,261.0,267.0,259.0,261.0,253.0,244.0,241.0,256.0,240.0,271.0,254.0,241.0,248.0,250.0,240.0,243.0,0.0
16:15:00.388 12/08/2009,256.0,270.0,256.0,253.0,261.0,254.0,263.0,254.0,274.0,280.0,280.0,272.0,263.0,248.0,233.0,251.0,259.0,271.0,233.0,241.0,262.0,46.0,43.0,35.0,91.0,72.0,169.0,193.0,95.0,208.0,204.0,242.0,232.0,229.0,237.0,240.0,191.0,95.0,246.0,249.0,252.0,250.0,239.0,254.0,228.0,227.0,210.0,226.0,221.0,231.0,222.0,227.0,221.0,206.0,200.0,212.0,206.0,242.0,220.0,200.0,232.0,233.0,223.0,217.0,0.0
16:15:00.394 12/08/2009,244.0,261.0,252.0,260.0,296.0,288.0,296.0,237.0,260.0,273.0,280.0,275.0,272.0,257.0,229.0,247.0,256.0,274.0,235.0,241.0,260.0,58.0,35.0,26.0,101.0,89.0,199.0,238.0,10.0,217.0,215.0,258.0,252.0,251.0,265.0,268.0,223.0,211.0,260.0,267.0,269.0,248.0,264.0,254.0,257.0,232.0,261.0,258.0,255.0,252.0,240.0,234.0,232.0,219.0,219.0,282.0,260.0,277.0,243.0,233.0,244.0,245.0,229.0,246.0,0.0
16:15:00.400 12/08/2009,260.0,269.0,257.0,255.0,253.0,244.0,251.0,250.0,265.0,271.0,269.0,253.0,238.0,215.0,257.0,267.0,262.0,268.0,225.0,227.0,240.0,90.0,91.0,87.0,106.0,120.0,182.0,225.0,111.0,229.0,227.0,254.0,244.0,224.0,212.0,188.0,71.0,227.0,271.0,234.0,284.0,214.0,273.0,248.0,279.0,218.0,286.0,265.0,260.0,250.0,234.0,232.0,220.0,209.0,205.0,282.0,255.0,263.0,232.0,219.0,265.0,254.0,234.0,261.0,0.0
16:15:00.406 12/08/2009,250.0,250.0,232.0,221.0,206.0,196.0,205.0,239.0,250.0,249.0,238.0,222.0,216.0,203.0,246.0,251.0,240.0,244.0,205.0,214.0,238.0,86.0,102.0,96.0,111.0,89.0,149.0,167.0,123.0,229.0,215.0,234.0,223.0,199.0,185.0,172.0,77.0,153.0,263.0,218.0,279.0,219.0,274.0,247.0,266.0,230.0,248.0,244.0,241.0,242.0,221.0,240.0,231.0,217.0,213.0,235.0,223.0,251.0,231.0,215.0,246.0,233.0,224.0,225.0,0.0
16:15:00.413 12/08/2009,256.0,266.0,248.0,238.0,234.0,227.0,237.0,260.0,274.0,278.0,263.0,257.0,260.0,244.0,260.0,276.0,262.0,272.0,239.0,251.0,274.0,78.0,75.0,65.0,106.0,76.0,165.0,187.0,117.0,230.0,228.0,259.0,250.0,231.0,220.0,212.0,129.0,149.0,267.0,237.0,271.0,246.0,285.0,254.0,280.0,258.0,263.0,270.0,267.0,270.0,250.0,269.0,261.0,244.0,237.0,248.0,238.0,271.0,247.0,228.0,219.0,209.0,211.0,190.0,0.0
16:15:00.419 12/08/2009,274.0,295.0,279.0,277.0,276.0,267.0,278.0,275.0,303.0,314.0,308.0,295.0,298.0,280.0,277.0,301.0,298.0,307.0,271.0,285.0,305.0,56.0,45.0,35.0,77.0,78.0,180.0,231.0,75.0,218.0,229.0,269.0,262.0,252.0,249.0,247.0,182.0,180.0,263.0,260.0,280.0,269.0,275.0,260.0,294.0,286.0,282.0,294.0,290.0,290.0,281.0,295.0,284.0,269.0,260.0,276.0,267.0,297.0,271.0,254.0,223.0,218.0,219.0,205.0,0.0
16:15:00.425 12/08/2009,275.0,294.0,282.0,290.0,294.0,284.0,295.0,285.0,305.0,316.0,316.0,307.0,314.0,301.0,285.0,303.0,308.0,318.0,289.0,305.0,327.0,54.0,45.0,37.0,63.0,89.0,180.0,244.0,41.0,219.0,224.0,257.0,250.0,240.0,245.0,241.0,187.0,177.0,259.0,271.0,279.0,286.0,272.0,281.0,284.0,288.0,268.0,272.0,266.0,266.0,263.0,279.0,272.0,262.0,256.0,247.0,239.0,270.0,256.0,236.0,233.0,230.0,228.0,234.0,0.0
16:15:00.431 12/08/2009,249.0,258.0,241.0,244.0,262.0,254.0,263.0,258.0,260.0,270.0,275.0,271.0,290.0,290.0,249.0,262.0,265.0,276.0,258.0,282.0,315.0,53.0,43.0,33.0,68.0,73.0,157.0,225.0,102.0,204.0,202.0,225.0,222.0,209.0,216.0,209.0,145.0,181.0,248.0,274.0,271.0,288.0,256.0,277.0,274.0,294.0,257.0,258.0,257.0,256.0,254.0,273.0,276.0,272.0,263.0,248.0,245.0,274.0,268.0,255.0,231.0,232.0,230.0,245.0,0.0
16:15:00.438 12/08/2009,249.0,252.0,234.0,232.0,258.0,248.0,259.0,271.0,265.0,274.0,277.0,275.0,293.0,295.0,268.0,280.0,275.0,284.0,272.0,297.0,333.0,72.0,49.0,42.0,89.0,89.0,154.0,187.0,63.0,222.0,214.0,236.0,229.0,210.0,210.0,202.0,122.0,182.0,265.0,275.0,293.0,284.0,260.0,286.0,296.0,312.0,286.0,285.0,282.0,278.0,270.0,296.0,296.0,293.0,283.0,271.0,271.0,291.0,288.0,275.0,239.0,243.0,240.0,249.0,0.0
16:15:00.444 12/08/2009,261.0,265.0,243.0,243.0,262.0,253.0,263.0,285.0,282.0,289.0,287.0,287.0,300.0,300.0,288.0,300.0,299.0,303.0,288.0,311.0,348.0,91.0,73.0,66.0,104.0,128.0,164.0,139.0,52.0,238.0,234.0,262.0,248.0,229.0,227.0,230.0,166.0,161.0,275.0,262.0,310.0,284.0,257.0,297.0,306.0,323.0,301.0,307.0,304.0,307.0,300.0,327.0,323.0,318.0,306.0,288.0,293.0,310.0,313.0,299.0,261.0,265.0,261.0,252.0,0.0
16:15:00.450 12/08/2009,295.0,310.0,291.0,288.0,300.0,292.0,302.0,311.0,323.0,333.0,334.0,329.0,337.0,323.0,307.0,329.0,333.0,346.0,324.0,339.0,365.0,103.0,70.0,62.0,137.0,173.0,216.0,180.0,23.0,245.0,267.0,307.0,289.0,276.0,270.0,270.0,195.0,182.0,281.0,286.0,310.0,301.0,255.0,275.0,308.0,319.0,306.0,316.0,313.0,323.0,316.0,336.0,331.0,317.0,304.0,294.0,290.0,308.0,313.0,298.0,281.0,281.0,280.0,259.0,0.0
16:15:00.456 12/08/2009,310.0,329.0,316.0,307.0,309.0,299.0,308.0,317.0,338.0,347.0,350.0,334.0,337.0,307.0,308.0,332.0,331.0,342.0,314.0,322.0,339.0,125.0,97.0,90.0,138.0,174.0,225.0,191.0,190.0,254.0,272.0,305.0,288.0,272.0,265.0,250.0,149.0,200.0,292.0,277.0,311.0,287.0,270.0,253.0,309.0,289.0,300.0,307.0,302.0,299.0,286.0,300.0,288.0,274.0,262.0,287.0,276.0,284.0,276.0,259.0,273.0,269.0,269.0,240.0,0.0
16:15:00.463 12/08/2009,301.0,312.0,293.0,280.0,284.0,275.0,282.0,308.0,317.0,323.0,310.0,297.0,301.0,276.0,298.0,313.0,296.0,305.0,275.0,284.0,305.0,115.0,77.0,67.0,124.0,147.0,204.0,193.0,143.0,246.0,248.0,275.0,261.0,240.0,239.0,230.0,156.0,205.0,272.0,260.0,297.0,267.0,249.0,259.0,296.0,277.0,303.0,290.0,286.0,271.0,254.0,277.0,275.0,266.0,267.0,300.0,277.0,279.0,279.0,278.0,267.0,266.0,261.0,246.0,0.0
16:15:00.469 12/08/2009,269.0,270.0,255.0,239.0,245.0,237.0,244.0,276.0,275.0,280.0,265.0,256.0,257.0,250.0,272.0,277.0,260.0,268.0,239.0,255.0,285.0,89.0,65.0,56.0,130.0,108.0,167.0,134.0,78.0,219.0,216.0,240.0,226.0,206.0,201.0,194.0,137.0,191.0,248.0,256.0,275.0,259.0,234.0,252.0,279.0,265.0,279.0,262.0,258.0,243.0,223.0,252.0,256.0,247.0,252.0,266.0,250.0,255.0,259.0,257.0,260.0,262.0,256.0,247.0,0.0
16:15:00.475 12/08/2009,246.0,241.0,226.0,214.0,228.0,220.0,228.0,253.0,246.0,252.0,241.0,238.0,239.0,240.0,253.0,253.0,239.0,249.0,227.0,238.0,271.0,79.0,51.0,43.0,107.0,129.0,146.0,121.0,133.0,211.0,206.0,222.0,209.0,193.0,201.0,200.0,161.0,164.0,238.0,258.0,264.0,260.0,234.0,259.0,275.0,268.0,265.0,253.0,251.0,240.0,220.0,241.0,250.0,248.0,260.0,260.0,248.0,257.0,256.0,267.0,252.0,258.0,258.0,243.0,0.0
16:15:00.481 12/08/2009,233.0,229.0,213.0,208.0,231.0,223.0,233.0,249.0,242.0,249.0,240.0,237.0,241.0,247.0,253.0,257.0,243.0,249.0,229.0,235.0,275.0,77.0,44.0,38.0,87.0,114.0,139.0,134.0,104.0,198.0,187.0,209.0,198.0,188.0,191.0,186.0,125.0,169.0,227.0,242.0,251.0,251.0,232.0,270.0,268.0,260.0,267.0,250.0,247.0,235.0,218.0,229.0,235.0,227.0,231.0,259.0,241.0,246.0,232.0,232.0,246.0,248.0,247.0,227.0,0.0
16:15:00.488 12/08/2009,222.0,222.0,210.0,203.0,221.0,213.0,221.0,232.0,237.0,243.0,231.0,225.0,226.0,228.0,237.0,243.0,230.0,237.0,210.0,216.0,254.0,73.0,40.0,32.0,91.0,97.0,141.0,107.0,36.0,196.0,192.0,216.0,208.0,195.0,193.0,192.0,126.0,146.0,231.0,229.0,248.0,239.0,231.0,262.0,253.0,251.0,246.0,234.0,231.0,227.0,213.0,233.0,234.0,226.0,225.0,237.0,222.0,241.0,232.0,230.0,232.0,228.0,228.0,193.0,0.0
16:15:00.494 12/08/2009,227.0,237.0,227.0,212.0,233.0,224.0,233.0,230.0,243.0,251.0,239.0,239.0,248.0,246.0,224.0,235.0,230.0,241.0,224.0,234.0,275.0,69.0,36.0,28.0,73.0,98.0,148.0,112.0,127.0,188.0,188.0,220.0,213.0,202.0,202.0,197.0,122.0,176.0,212.0,241.0,230.0,246.0,204.0,270.0,224.0,260.0,214.0,216.0,212.0,218.0,208.0,233.0,233.0,230.0,230.0,212.0,202.0,231.0,233.0,224.0,214.0,206.0,212.0,157.0,0.0
16:15:00.500 12/08/2009,215.0,234.0,229.0,213.0,248.0,242.0,251.0,223.0,243.0,253.0,243.0,250.0,266.0,265.0,221.0,236.0,237.0,252.0,238.0,256.0,293.0,56.0,14.0,2.0,67.0,116.0,162.0,152.0,-2.0,192.0,195.0,233.0,230.0,224.0,233.0,237.0,190.0,131.0,222.0,254.0,234.0,267.0,244.0,275.0,254.0,280.0,252.0,247.0,244.0,249.0,232.0,259.0,260.0,257.0,255.0,255.0,239.0,257.0,262.0,254.0,227.0,219.0,223.0,170.0,0.0
16:15:00.506 12/08/2009,238.0,251.0,240.0,228.0,250.0,243.0,251.0,254.0,261.0,268.0,252.0,257.0,261.0,260.0,258.0,260.0,255.0,265.0,244.0,261.0,291.0,60.0,39.0,32.0,69.0,142.0,157.0,116.0,152.0,206.0,202.0,231.0,219.0,202.0,201.0,184.0,95.0,152.0,240.0,248.0,257.0,260.0,256.0,243.0,273.0,270.0,265.0,253.0,248.0,245.0,228.0,249.0,248.0,244.0,243.0,256.0,237.0,247.0,250.0,239.0,244.0,238.0,241.0,199.0,0.0
16:15:00.513 12/08/2009,228.0,223.0,209.0,198.0,205.0,197.0,206.0,242.0,242.0,246.0,233.0,230.0,233.0,234.0,254.0,251.0,240.0,252.0,231.0,241.0,274.0,58.0,30.0,21.0,68.0,56.0,127.0,76.0,181.0,186.0,176.0,198.0,183.0,169.0,164.0,149.0,72.0,170.0,222.0,225.0,253.0,233.0,238.0,252.0,265.0,250.0,253.0,247.0,243.0,238.0,220.0,245.0,238.0,231.0,227.0,244.0,232.0,241.0,240.0,225.0,243.0,240.0,243.0,199.0,0.0
16:15:00.519 12/08/2009,215.0,206.0,193.0,192.0,201.0,194.0,203.0,237.0,229.0,237.0,226.0,223.0,225.0,228.0,246.0,241.0,231.0,246.0,225.0,231.0,264.0,65.0,24.0,13.0,65.0,63.0,130.0,92.0,92.0,195.0,181.0,196.0,186.0,174.0,176.0,168.0,107.0,164.0,232.0,235.0,271.0,254.0,258.0,242.0,273.0,249.0,258.0,248.0,245.0,240.0,222.0,247.0,234.0,228.0,223.0,250.0,236.0,243.0,237.0,219.0,234.0,228.0,228.0,171.0,0.0
16:15:00.525 12/08/2009,232.0,225.0,210.0,208.0,215.0,206.0,216.0,245.0,237.0,249.0,239.0,232.0,229.0,238.0,255.0,244.0,237.0,248.0,230.0,230.0,265.0,79.0,42.0,30.0,80.0,98.0,144.0,106.0,103.0,205.0,194.0,210.0,201.0,185.0,186.0,180.0,110.0,162.0,230.0,233.0,263.0,246.0,243.0,244.0,261.0,242.0,254.0,239.0,235.0,232.0,214.0,235.0,220.0,213.0,212.0,244.0,228.0,233.0,221.0,202.0,227.0,212.0,204.0,155.0,0.0
16:15:00.531 12/08/2009,228.0,226.0,218.0,214.0,224.0,216.0,225.0,234.0,238.0,252.0,247.0,240.0,237.0,244.0,243.0,241.0,236.0,253.0,238.0,237.0,272.0,74.0,35.0,22.0,74.0,101.0,157.0,136.0,112.0,189.0,194.0,224.0,217.0,208.0,206.0,207.0,145.0,155.0,215.0,247.0,250.0,264.0,229.0,246.0,249.0,267.0,250.0,243.0,241.0,248.0,241.0,257.0,254.0,247.0,251.0,239.0,233.0,246.0,251.0,244.0,223.0,214.0,211.0,185.0,0.0
16:15:00.538 12/08/2009,236.0,247.0,243.0,240.0,251.0,244.0,254.0,240.0,257.0,275.0,271.0,262.0,264.0,260.0,240.0,251.0,250.0,269.0,256.0,261.0,287.0,79.0,34.0,23.0,79.0,106.0,181.0,189.0,139.0,190.0,203.0,243.0,235.0,230.0,229.0,229.0,168.0,178.0,219.0,249.0,243.0,256.0,227.0,256.0,235.0,260.0,232.0,235.0,233.0,244.0,238.0,258.0,257.0,241.0,239.0,218.0,216.0,231.0,243.0,229.0,210.0,211.0,219.0,199.0,0.0
16:15:00.544 12/08/2009,249.0,262.0,251.0,243.0,249.0,241.0,251.0,248.0,266.0,284.0,274.0,262.0,263.0,252.0,244.0,258.0,259.0,272.0,260.0,262.0,287.0,99.0,71.0,64.0,106.0,110.0,184.0,156.0,122.0,205.0,220.0,259.0,247.0,234.0,230.0,229.0,176.0,191.0,236.0,239.0,248.0,248.0,229.0,266.0,248.0,265.0,246.0,254.0,251.0,263.0,251.0,272.0,273.0,256.0,254.0,246.0,242.0,258.0,261.0,252.0,209.0,214.0,225.0,190.0,0.0
16:15:00.550 12/08/2009,266.0,275.0,267.0,254.0,268.0,261.0,268.0,263.0,281.0,299.0,288.0,275.0,280.0,271.0,264.0,277.0,277.0,288.0,278.0,277.0,304.0,113.0,79.0,70.0,120.0,133.0,204.0,191.0,159.0,212.0,231.0,267.0,258.0,248.0,244.0,238.0,181.0,173.0,238.0,237.0,246.0,246.0,224.0,273.0,251.0,271.0,258.0,265.0,260.0,272.0,253.0,276.0,270.0,259.0,259.0,251.0,250.0,261.0,261.0,251.0,224.0,228.0,237.0,200.0,0.0
16:15:00.556 12/08/2009,259.0,267.0,262.0,259.0,272.0,265.0,272.0,250.0,268.0,287.0,279.0,258.0,269.0,265.0,250.0,265.0,267.0,272.0,262.0,258.0,286.0,109.0,59.0,48.0,115.0,154.0,200.0,225.0,10.0,204.0,225.0,260.0,253.0,248.0,256.0,254.0,203.0,95.0,222.0,252.0,240.0,259.0,233.0,267.0,239.0,260.0,245.0,250.0,247.0,256.0,236.0,260.0,256.0,246.0,248.0,238.0,237.0,254.0,251.0,238.0,229.0,225.0,235.0,215.0,0.0
16:15:00.563 12/08/2009,248.0,256.0,253.0,253.0,269.0,261.0,270.0,244.0,256.0,276.0,269.0,251.0,266.0,258.0,243.0,255.0,259.0,265.0,257.0,248.0,279.0,106.0,53.0,43.0,106.0,126.0,186.0,191.0,131.0,208.0,211.0,241.0,236.0,228.0,230.0,222.0,186.0,250.0,230.0,261.0,249.0,257.0,248.0,230.0,249.0,252.0,253.0,250.0,247.0,248.0,232.0,252.0,244.0,236.0,234.0,259.0,251.0,254.0,246.0,231.0,232.0,222.0,228.0,234.0,0.0
16:15:00.569 12/08/2009,236.0,238.0,229.0,229.0,228.0,220.0,229.0,237.0,237.0,256.0,253.0,233.0,238.0,232.0,240.0,243.0,244.0,251.0,244.0,237.0,266.0,115.0,65.0,56.0,129.0,86.0,169.0,199.0,257.0,208.0,204.0,229.0,221.0,209.0,195.0,175.0,89.0,241.0,235.0,234.0,258.0,249.0,255.0,245.0,258.0,256.0,267.0,255.0,252.0,254.0,232.0,259.0,251.0,247.0,247.0,267.0,261.0,262.0,256.0,253.0,244.0,233.0,232.0,260.0,0.0
16:15:00.575 12/08/2009,242.0,242.0,230.0,228.0,223.0,216.0,223.0,244.0,250.0,264.0,257.0,241.0,239.0,237.0,252.0,256.0,251.0,258.0,257.0,246.0,279.0,92.0,54.0,44.0,108.0,107.0,159.0,181.0,117.0,197.0,197.0,223.0,210.0,200.0,193.0,180.0,120.0,157.0,227.0,223.0,254.0,247.0,232.0,246.0,260.0,264.0,268.0,256.0,252.0,254.0,233.0,264.0,261.0,252.0,256.0,259.0,256.0,259.0,263.0,262.0,250.0,248.0,244.0,282.0,0.0
16:15:00.581 12/08/2009,228.0,233.0,219.0,212.0,230.0,223.0,232.0,241.0,249.0,261.0,257.0,241.0,246.0,247.0,247.0,259.0,254.0,254.0,259.0,252.0,289.0,83.0,44.0,33.0,115.0,75.0,149.0,152.0,119.0,190.0,189.0,215.0,203.0,201.0,201.0,197.0,161.0,139.0,221.0,247.0,249.0,261.0,212.0,237.0,258.0,274.0,260.0,256.0,253.0,257.0,239.0,269.0,266.0,257.0,261.0,252.0,247.0,254.0,263.0,252.0,246.0,249.0,250.0,285.0,0.0
16:15:00.588 12/08/2009,233.0,244.0,232.0,232.0,243.0,237.0,245.0,247.0,251.0,267.0,263.0,242.0,249.0,254.0,241.0,254.0,251.0,247.0,249.0,247.0,281.0,82.0,24.0,13.0,124.0,88.0,172.0,210.0,140.0,206.0,208.0,233.0,219.0,218.0,217.0,211.0,177.0,188.0,237.0,239.0,260.0,247.0,229.0,263.0,248.0,251.0,228.0,224.0,222.0,225.0,204.0,234.0,228.0,218.0,213.0,209.0,202.0,213.0,214.0,200.0,205.0,204.0,209.0,224.0,0.0
16:15:00.594 12/08/2009,240.0,244.0,232.0,233.0,229.0,221.0,228.0,230.0,239.0,257.0,250.0,226.0,230.0,237.0,228.0,237.0,234.0,231.0,229.0,227.0,264.0,103.0,70.0,60.0,126.0,103.0,173.0,193.0,138.0,208.0,206.0,231.0,215.0,205.0,201.0,184.0,124.0,167.0,225.0,228.0,237.0,235.0,238.0,242.0,243.0,248.0,238.0,224.0,223.0,226.0,214.0,234.0,233.0,223.0,219.0,233.0,225.0,231.0,230.0,220.0,190.0,185.0,185.0,209.0,0.0
16:15:00.600 12/08/2009,223.0,228.0,220.0,223.0,221.0,213.0,221.0,216.0,228.0,248.0,244.0,223.0,228.0,239.0,216.0,226.0,232.0,230.0,228.0,228.0,265.0,91.0,65.0,53.0,111.0,74.0,149.0,133.0,116.0,188.0,188.0,215.0,202.0,193.0,190.0,182.0,132.0,165.0,206.0,242.0,227.0,249.0,218.0,246.0,230.0,251.0,219.0,213.0,209.0,215.0,208.0,228.0,229.0,216.0,220.0,203.0,203.0,223.0,224.0,213.0,189.0,185.0,184.0,211.0,0.0
16:15:00.606 12/08/2009,223.0,227.0,220.0,230.0,228.0,220.0,230.0,214.0,228.0,245.0,247.0,223.0,230.0,236.0,213.0,225.0,233.0,233.0,235.0,231.0,264.0,99.0,54.0,43.0,125.0,84.0,167.0,185.0,103.0,211.0,211.0,232.0,222.0,212.0,210.0,198.0,142.0,216.0,231.0,247.0,243.0,251.0,227.0,248.0,244.0,251.0,220.0,226.0,223.0,228.0,212.0,233.0,237.0,224.0,231.0,210.0,216.0,233.0,230.0,227.0,193.0,192.0,196.0,205.0,0.0
16:15:00.613 12/08/2009,250.0,249.0,231.0,237.0,232.0,225.0,234.0,233.0,246.0,261.0,263.0,233.0,232.0,238.0,233.0,243.0,249.0,249.0,249.0,236.0,266.0,119.0,78.0,67.0,140.0,117.0,169.0,173.0,98.0,223.0,221.0,232.0,221.0,209.0,208.0,194.0,140.0,178.0,235.0,223.0,241.0,239.0,219.0,259.0,255.0,253.0,249.0,248.0,245.0,251.0,232.0,246.0,247.0,231.0,234.0,249.0,244.0,245.0,243.0,231.0,212.0,209.0,212.0,208.0,0.0
16:15:00.619 12/08/2009,246.0,241.0,227.0,231.0,238.0,232.0,240.0,229.0,248.0,263.0,274.0,239.0,239.0,244.0,238.0,250.0,254.0,258.0,257.0,243.0,272.0,126.0,68.0,53.0,158.0,108.0,174.0,192.0,77.0,217.0,218.0,229.0,221.0,217.0,222.0,224.0,213.0,186.0,233.0,253.0,241.0,250.0,214.0,268.0,250.0,263.0,248.0,254.0,250.0,260.0,245.0,259.0,256.0,242.0,241.0,247.0,243.0,252.0,257.0,245.0,233.0,228.0,232.0,223.0,0.0
16:15:00.625 12/08/2009,250.0,247.0,236.0,241.0,249.0,243.0,252.0,234.0,254.0,269.0,279.0,249.0,248.0,252.0,242.0,257.0,259.0,266.0,264.0,252.0,281.0,136.0,86.0,73.0,168.0,140.0,184.0,206.0,126.0,224.0,226.0,235.0,230.0,225.0,225.0,226.0,199.0,168.0,237.0,251.0,239.0,247.0,209.0,263.0,248.0,261.0,246.0,253.0,250.0,258.0,246.0,261.0,259.0,244.0,240.0,244.0,241.0,252.0,257.0,244.0,239.0,235.0,247.0,228.0,0.0
16:15:00.631 12/08/2009,241.0,247.0,237.0,238.0,240.0,233.0,240.0,234.0,252.0,267.0,270.0,242.0,240.0,248.0,243.0,255.0,257.0,262.0,260.0,251.0,271.0,116.0,95.0,85.0,158.0,142.0,180.0,188.0,199.0,210.0,215.0,232.0,229.0,216.0,208.0,196.0,142.0,235.0,225.0,238.0,240.0,235.0,204.0,246.0,253.0,257.0,257.0,254.0,253.0,257.0,245.0,260.0,254.0,242.0,240.0,258.0,249.0,255.0,261.0,243.0,236.0,232.0,248.0,218.0,0.0
16:15:00.638 12/08/2009,246.0,251.0,237.0,233.0,222.0,217.0,224.0,244.0,254.0,269.0,265.0,235.0,237.0,238.0,249.0,256.0,254.0,255.0,253.0,246.0,268.0,115.0,78.0,64.0,179.0,140.0,168.0,180.0,122.0,222.0,225.0,242.0,230.0,213.0,203.0,192.0,123.0,201.0,239.0,239.0,259.0,250.0,222.0,244.0,256.0,256.0,246.0,245.0,243.0,246.0,227.0,247.0,242.0,234.0,228.0,239.0,224.0,237.0,246.0,227.0,222.0,215.0,232.0,195.0,0.0
16:15:00.644 12/08/2009,263.0,260.0,243.0,236.0,239.0,233.0,242.0,254.0,262.0,271.0,268.0,239.0,247.0,251.0,249.0,253.0,252.0,251.0,251.0,250.0,275.0,124.0,62.0,48.0,188.0,146.0,171.0,202.0,98.0,229.0,230.0,246.0,235.0,220.0,218.0,215.0,167.0,168.0,241.0,247.0,263.0,253.0,228.0,248.0,258.0,263.0,246.0,247.0,243.0,247.0,228.0,248.0,249.0,240.0,232.0,243.0,229.0,246.0,249.0,232.0,216.0,209.0,220.0,186.0,0.0
16:15:00.650 12/08/2009,253.0,254.0,242.0,229.0,243.0,236.0,245.0,251.0,259.0,270.0,268.0,241.0,253.0,265.0,253.0,257.0,254.0,258.0,257.0,259.0,291.0,109.0,58.0,45.0,170.0,147.0,166.0,184.0,118.0,222.0,217.0,240.0,232.0,219.0,211.0,206.0,134.0,139.0,239.0,249.0,269.0,249.0,236.0,268.0,267.0,281.0,270.0,266.0,265.0,265.0,248.0,270.0,272.0,262.0,259.0,281.0,264.0,279.0,277.0,268.0,243.0,237.0,243.0,220.0,0.0
16:15:00.656 12/08/2009,246.0,248.0,242.0,234.0,239.0,233.0,240.0,253.0,257.0,274.0,275.0,250.0,257.0,264.0,264.0,267.0,265.0,272.0,272.0,274.0,303.0,98.0,38.0,22.0,146.0,151.0,175.0,208.0,95.0,212.0,212.0,236.0,233.0,218.0,213.0,212.0,166.0,208.0,233.0,250.0,263.0,263.0,233.0,274.0,260.0,286.0,272.0,266.0,263.0,263.0,246.0,275.0,274.0,266.0,263.0,272.0,258.0,271.0,278.0,268.0,265.0,265.0,272.0,250.0,0.0
16:15:00.663 12/08/2009,236.0,236.0,228.0,224.0,224.0,216.0,225.0,233.0,241.0,257.0,256.0,231.0,238.0,246.0,240.0,243.0,244.0,256.0,255.0,254.0,286.0,103.0,74.0,63.0,153.0,138.0,160.0,177.0,125.0,206.0,203.0,218.0,211.0,196.0,188.0,178.0,119.0,131.0,223.0,237.0,246.0,257.0,223.0,260.0,238.0,270.0,238.0,230.0,228.0,232.0,216.0,243.0,239.0,233.0,233.0,231.0,220.0,228.0,239.0,222.0,236.0,237.0,252.0,215.0,0.0
16:15:00.669 12/08/2009,231.0,232.0,219.0,210.0,223.0,218.0,227.0,225.0,237.0,248.0,242.0,223.0,233.0,241.0,232.0,232.0,237.0,242.0,242.0,240.0,275.0,120.0,71.0,58.0,188.0,112.0,172.0,213.0,152.0,222.0,215.0,232.0,223.0,217.0,220.0,224.0,186.0,141.0,245.0,249.0,269.0,262.0,250.0,277.0,259.0,275.0,261.0,251.0,251.0,255.0,238.0,253.0,254.0,249.0,248.0,271.0,257.0,257.0,261.0,257.0,217.0,220.0,231.0,203.0,0.0
16:15:00.675 12/08/2009,266.0,268.0,253.0,240.0,260.0,253.0,262.0,267.0,274.0,286.0,270.0,252.0,261.0,265.0,273.0,273.0,272.0,274.0,271.0,266.0,293.0,140.0,96.0,83.0,202.0,138.0,199.0,242.0,170.0,239.0,237.0,257.0,247.0,231.0,225.0,222.0,175.0,295.0,261.0,275.0,287.0,279.0,256.0,267.0,281.0,279.0,295.0,281.0,279.0,280.0,255.0,269.0,268.0,256.0,254.0,299.0,281.0,274.0,278.0,266.0,242.0,243.0,241.0,233.0,0.0
16:15:00.681 12/08/2009,261.0,263.0,249.0,239.0,240.0,233.0,242.0,264.0,270.0,282.0,268.0,247.0,254.0,261.0,271.0,281.0,277.0,277.0,272.0,268.0,294.0,127.0,101.0,89.0,193.0,136.0,182.0,233.0,168.0,223.0,223.0,245.0,233.0,216.0,203.0,194.0,122.0,234.0,242.0,267.0,270.0,274.0,232.0,283.0,270.0,286.0,290.0,284.0,282.0,284.0,265.0,287.0,282.0,269.0,268.0,297.0,285.0,287.0,290.0,280.0,277.0,275.0,271.0,265.0,0.0
16:15:00.688 12/08/2009,243.0,250.0,235.0,232.0,229.0,222.0,230.0,251.0,260.0,276.0,271.0,243.0,246.0,254.0,261.0,277.0,276.0,278.0,277.0,267.0,290.0,132.0,89.0,78.0,190.0,144.0,167.0,193.0,184.0,218.0,215.0,237.0,228.0,213.0,199.0,187.0,120.0,152.0,237.0,245.0,261.0,257.0,227.0,268.0,259.0,268.0,272.0,273.0,271.0,276.0,259.0,280.0,271.0,250.0,240.0,277.0,265.0,274.0,270.0,250.0,279.0,274.0,272.0,254.0,0.0
16:15:00.694 12/08/2009,245.0,250.0,237.0,240.0,232.0,225.0,234.0,254.0,260.0,277.0,275.0,243.0,244.0,251.0,258.0,270.0,268.0,272.0,272.0,261.0,286.0,142.0,99.0,86.0,183.0,168.0,187.0,222.0,149.0,231.0,229.0,252.0,243.0,236.0,227.0,213.0,157.0,204.0,247.0,250.0,261.0,257.0,228.0,246.0,258.0,271.0,265.0,265.0,262.0,272.0,266.0,284.0,285.0,264.0,257.0,266.0,255.0,288.0,289.0,280.0,262.0,262.0,263.0,257.0,0.0
16:15:00.700 12/08/2009,258.0,271.0,259.0,265.0,268.0,263.0,272.0,262.0,271.0,289.0,288.0,274.0,282.0,286.0,257.0,272.0,271.0,287.0,292.0,290.0,316.0,149.0,110.0,97.0,178.0,184.0,209.0,257.0,138.0,239.0,243.0,274.0,263.0,260.0,261.0,254.0,220.0,172.0,257.0,263.0,272.0,269.0,213.0,252.0,254.0,288.0,266.0,267.0,263.0,276.0,262.0,290.0,290.0,271.0,265.0,267.0,253.0,282.0,286.0,274.0,254.0,263.0,265.0,278.0,0.0
16:15:00.706 12/08/2009,268.0,276.0,261.0,259.0,276.0,270.0,277.0,259.0,269.0,284.0,285.0,263.0,275.0,269.0,246.0,257.0,262.0,273.0,271.0,265.0,282.0,138.0,84.0,69.0,172.0,186.0,201.0,263.0,120.0,233.0,236.0,268.0,252.0,248.0,254.0,244.0,211.0,231.0,248.0,250.0,250.0,251.0,221.0,253.0,241.0,249.0,230.0,239.0,236.0,247.0,228.0,244.0,237.0,219.0,208.0,219.0,215.0,234.0,227.0,200.0,221.0,221.0,217.0,218.0,0.0
16:15:00.713 12/08/2009,262.0,270.0,255.0,242.0,259.0,251.0,259.0,251.0,266.0,282.0,281.0,251.0,253.0,248.0,244.0,261.0,261.0,269.0,262.0,247.0,269.0,140.0,118.0,108.0,171.0,187.0,205.0,262.0,231.0,232.0,234.0,267.0,250.0,248.0,241.0,220.0,163.0,248.0,247.0,253.0,253.0,249.0,230.0,265.0,259.0,260.0,248.0,259.0,258.0,264.0,238.0,255.0,252.0,238.0,237.0,250.0,244.0,259.0,250.0,234.0,208.0,201.0,191.0,176.0,0.0
16:15:00.719 12/08/2009,256.0,264.0,248.0,234.0,249.0,243.0,250.0,252.0,265.0,280.0,281.0,251.0,253.0,253.0,253.0,269.0,264.0,269.0,265.0,254.0,282.0,143.0,105.0,93.0,172.0,146.0,195.0,256.0,214.0,221.0,216.0,247.0,230.0,233.0,225.0,211.0,166.0,218.0,237.0,260.0,255.0,267.0,228.0,239.0,263.0,267.0,259.0,260.0,258.0,260.0,227.0,253.0,257.0,241.0,238.0,254.0,239.0,252.0,257.0,232.0,217.0,210.0,203.0,184.0,0.0
16:15:00.725 12/08/2009,238.0,244.0,230.0,221.0,245.0,238.0,246.0,242.0,247.0,260.0,262.0,237.0,258.0,260.0,246.0,256.0,249.0,258.0,263.0,261.0,293.0,131.0,89.0,77.0,175.0,174.0,182.0,251.0,139.0,219.0,210.0,233.0,216.0,219.0,220.0,219.0,187.0,134.0,228.0,242.0,245.0,258.0,223.0,259.0,259.0,277.0,242.0,245.0,243.0,250.0,225.0,261.0,268.0,258.0,253.0,238.0,231.0,258.0,270.0,252.0,228.0,230.0,235.0,218.0,0.0
16:15:00.731 12/08/2009,225.0,227.0,212.0,203.0,245.0,238.0,246.0,234.0,235.0,245.0,250.0,232.0,260.0,269.0,240.0,244.0,242.0,255.0,261.0,267.0,299.0,122.0,77.0,65.0,166.0,138.0,166.0,216.0,98.0,208.0,199.0,212.0,195.0,200.0,200.0,197.0,158.0,175.0,222.0,254.0,249.0,257.0,224.0,265.0,266.0,277.0,252.0,245.0,242.0,250.0,230.0,255.0,262.0,251.0,242.0,247.0,234.0,249.0,261.0,238.0,235.0,238.0,249.0,229.0,0.0
16:15:00.738 12/08/2009,219.0,215.0,196.0,192.0,215.0,208.0,215.0,225.0,223.0,229.0,235.0,214.0,231.0,243.0,232.0,230.0,231.0,241.0,240.0,238.0,273.0,115.0,60.0,45.0,156.0,133.0,159.0,225.0,189.0,204.0,189.0,201.0,187.0,190.0,188.0,176.0,134.0,249.0,219.0,251.0,243.0,244.0,221.0,271.0,247.0,255.0,231.0,224.0,224.0,228.0,201.0,231.0,237.0,224.0,215.0,229.0,212.0,221.0,234.0,213.0,225.0,219.0,227.0,196.0,0.0
16:15:00.744 12/08/2009,215.0,214.0,201.0,196.0,219.0,214.0,222.0,212.0,222.0,235.0,240.0,214.0,230.0,238.0,217.0,219.0,229.0,240.0,237.0,232.0,266.0,110.0,46.0,28.0,166.0,145.0,182.0,263.0,110.0,204.0,198.0,214.0,207.0,211.0,216.0,218.0,208.0,190.0,221.0,251.0,236.0,243.0,210.0,269.0,241.0,260.0,233.0,229.0,229.0,230.0,203.0,237.0,237.0,230.0,224.0,242.0,225.0,229.0,241.0,233.0,218.0,205.0,206.0,184.0,0.0
16:15:00.750 12/08/2009,227.0,230.0,218.0,214.0,236.0,232.0,239.0,228.0,237.0,251.0,260.0,226.0,238.0,236.0,225.0,232.0,239.0,251.0,244.0,238.0,268.0,133.0,91.0,80.0,165.0,171.0,193.0,247.0,94.0,216.0,219.0,232.0,220.0,219.0,215.0,205.0,142.0,222.0,237.0,256.0,254.0,265.0,216.0,268.0,246.0,261.0,237.0,231.0,229.0,234.0,209.0,234.0,235.0,224.0,222.0,230.0,218.0,218.0,233.0,223.0,220.0,209.0,204.0,202.0,0.0
16:15:00.756 12/08/2009,234.0,234.0,219.0,210.0,212.0,207.0,215.0,233.0,231.0,243.0,250.0,214.0,219.0,220.0,215.0,224.0,225.0,237.0,228.0,216.0,248.0,139.0,114.0,102.0,201.0,173.0,175.0,179.0,184.0,225.0,213.0,222.0,207.0,201.0,188.0,177.0,101.0,220.0,232.0,252.0,248.0,261.0,214.0,255.0,230.0,243.0,210.0,208.0,207.0,212.0,186.0,212.0,213.0,202.0,204.0,208.0,201.0,202.0,216.0,205.0,213.0,204.0,202.0,199.0,0.0
16:15:00.763 12/08/2009,221.0,220.0,205.0,195.0,215.0,210.0,217.0,221.0,223.0,234.0,243.0,213.0,224.0,231.0,212.0,221.0,220.0,235.0,233.0,223.0,258.0,128.0,79.0,63.0,193.0,153.0,177.0,213.0,169.0,211.0,202.0,218.0,207.0,204.0,200.0,198.0,148.0,206.0,218.0,260.0,234.0,269.0,204.0,270.0,240.0,265.0,236.0,231.0,231.0,239.0,207.0,238.0,241.0,228.0,235.0,248.0,236.0,238.0,243.0,235.0,223.0,219.0,215.0,206.0,0.0
16:15:00.769 12/08/2009,230.0,234.0,222.0,206.0,233.0,227.0,234.0,237.0,243.0,254.0,257.0,223.0,248.0,244.0,236.0,243.0,245.0,255.0,252.0,242.0,273.0,125.0,76.0,60.0,181.0,163.0,199.0,244.0,143.0,222.0,218.0,238.0,229.0,226.0,227.0,224.0,185.0,221.0,232.0,261.0,241.0,264.0,208.0,274.0,256.0,265.0,261.0,253.0,252.0,258.0,228.0,256.0,257.0,231.0,233.0,270.0,251.0,257.0,249.0,230.0,250.0,240.0,229.0,225.0,0.0
16:15:00.775 12/08/2009,241.0,248.0,240.0,220.0,243.0,238.0,245.0,241.0,254.0,269.0,266.0,234.0,261.0,252.0,239.0,254.0,258.0,266.0,263.0,255.0,281.0,128.0,104.0,92.0,185.0,192.0,210.0,246.0,179.0,216.0,220.0,244.0,241.0,240.0,235.0,227.0,167.0,185.0,221.0,257.0,222.0,265.0,184.0,263.0,232.0,261.0,237.0,243.0,241.0,251.0,230.0,259.0,258.0,237.0,231.0,239.0,234.0,252.0,251.0,231.0,254.0,241.0,230.0,215.0,0.0
16:15:00.781 12/08/2009,238.0,252.0,250.0,232.0,256.0,251.0,258.0,238.0,260.0,279.0,278.0,251.0,271.0,267.0,237.0,258.0,263.0,275.0,276.0,266.0,294.0,147.0,122.0,109.0,219.0,207.0,229.0,276.0,259.0,225.0,233.0,259.0,261.0,261.0,254.0,245.0,180.0,196.0,233.0,270.0,234.0,273.0,204.0,264.0,242.0,274.0,248.0,253.0,253.0,265.0,241.0,275.0,269.0,251.0,242.0,253.0,247.0,261.0,268.0,251.0,249.0,241.0,240.0,209.0,0.0
16:15:00.788 12/08/2009,262.0,272.0,269.0,260.0,283.0,277.0,285.0,253.0,276.0,294.0,296.0,269.0,287.0,278.0,250.0,267.0,271.0,284.0,282.0,272.0,296.0,177.0,138.0,124.0,252.0,195.0,237.0,290.0,290.0,244.0,251.0,271.0,273.0,276.0,275.0,272.0,233.0,208.0,251.0,264.0,260.0,274.0,237.0,262.0,257.0,277.0,258.0,260.0,260.0,271.0,235.0,279.0,274.0,257.0,252.0,271.0,259.0,268.0,277.0,266.0,253.0,251.0,260.0,225.0,0.0
16:15:00.794 12/08/2009,274.0,280.0,277.0,270.0,297.0,291.0,299.0,269.0,289.0,304.0,307.0,277.0,300.0,284.0,270.0,282.0,284.0,298.0,294.0,278.0,299.0,170.0,122.0,107.0,248.0,213.0,235.0,302.0,262.0,258.0,260.0,277.0,276.0,278.0,277.0,276.0,235.0,236.0,268.0,275.0,288.0,253.0,254.0,252.0,281.0,267.0,277.0,272.0,270.0,277.0,240.0,278.0,274.0,254.0,246.0,274.0,260.0,263.0,269.0,253.0,263.0,257.0,267.0,237.0,0.0
16:15:00.800 12/08/2009,281.0,280.0,267.0,254.0,274.0,267.0,274.0,274.0,284.0,294.0,293.0,259.0,278.0,262.0,270.0,278.0,276.0,284.0,277.0,260.0,285.0,157.0,126.0,114.0,245.0,221.0,221.0,277.0,245.0,270.0,261.0,274.0,263.0,254.0,241.0,227.0,156.0,243.0,286.0,251.0,306.0,248.0,290.0,273.0,293.0,270.0,279.0,271.0,270.0,271.0,242.0,277.0,270.0,264.0,266.0,277.0,265.0,271.0,283.0,278.0,268.0,260.0,268.0,249.0,0.0
16:15:00.806 12/08/2009,291.0,286.0,262.0,244.0,240.0,233.0,240.0,289.0,289.0,294.0,287.0,255.0,261.0,251.0,286.0,294.0,282.0,283.0,277.0,265.0,293.0,167.0,137.0,125.0,264.0,192.0,197.0,209.0,246.0,268.0,261.0,268.0,249.0,233.0,213.0,201.0,139.0,255.0,281.0,252.0,312.0,266.0,294.0,267.0,304.0,275.0,297.0,284.0,283.0,277.0,245.0,279.0,266.0,258.0,257.0,290.0,274.0,267.0,276.0,263.0,275.0,265.0,267.0,254.0,0.0
16:15:00.813 12/08/2009,279.0,274.0,253.0,240.0,243.0,237.0,246.0,275.0,279.0,285.0,280.0,249.0,262.0,254.0,273.0,284.0,278.0,274.0,271.0,258.0,285.0,138.0,98.0,84.0,228.0,183.0,184.0,209.0,164.0,229.0,231.0,250.0,235.0,232.0,227.0,228.0,213.0,238.0,241.0,263.0,279.0,267.0,263.0,262.0,279.0,269.0,276.0,266.0,264.0,265.0,232.0,268.0,255.0,248.0,238.0,266.0,258.0,254.0,261.0,242.0,265.0,253.0,251.0,228.0,0.0
16:15:00.819 12/08/2009,240.0,243.0,230.0,224.0,249.0,242.0,250.0,243.0,248.0,257.0,258.0,234.0,253.0,257.0,241.0,252.0,251.0,251.0,253.0,246.0,276.0,112.0,81.0,68.0,200.0,158.0,173.0,214.0,242.0,204.0,197.0,218.0,211.0,210.0,212.0,208.0,167.0,199.0,217.0,259.0,244.0,266.0,252.0,262.0,246.0,254.0,243.0,230.0,227.0,234.0,206.0,241.0,228.0,220.0,209.0,238.0,224.0,233.0,233.0,208.0,244.0,232.0,222.0,200.0,0.0
16:15:00.825 12/08/2009,202.0,202.0,188.0,195.0,223.0,217.0,223.0,206.0,208.0,217.0,228.0,205.0,231.0,235.0,204.0,212.0,215.0,224.0,229.0,228.0,260.0,98.0,72.0,58.0,185.0,113.0,163.0,226.0,182.0,189.0,177.0,194.0,186.0,193.0,195.0,193.0,158.0,198.0,208.0,243.0,224.0,254.0,244.0,278.0,234.0,253.0,231.0,219.0,218.0,227.0,205.0,238.0,231.0,229.0,223.0,248.0,231.0,240.0,243.0,230.0,232.0,224.0,206.0,204.0,0.0
16:15:00.831 12/08/2009,209.0,207.0,190.0,194.0,220.0,216.0,221.0,218.0,218.0,225.0,234.0,209.0,233.0,235.0,213.0,224.0,220.0,233.0,239.0,232.0,267.0,105.0,96.0,84.0,203.0,142.0,175.0,202.0,228.0,216.0,201.0,212.0,199.0,197.0,192.0,186.0,145.0,202.0,235.0,254.0,240.0,259.0,268.0,259.0,244.0,255.0,237.0,223.0,222.0,228.0,209.0,239.0,231.0,224.0,218.0,238.0,223.0,235.0,237.0,222.0,230.0,226.0,210.0,220.0,0.0
16:15:00.838 12/08/2009,227.0,221.0,200.0,194.0,208.0,203.0,209.0,221.0,222.0,228.0,229.0,202.0,217.0,223.0,206.0,218.0,214.0,223.0,223.0,215.0,250.0,126.0,93.0,78.0,234.0,122.0,177.0,219.0,294.0,232.0,206.0,219.0,203.0,203.0,193.0,184.0,136.0,191.0,244.0,250.0,243.0,251.0,275.0,260.0,231.0,241.0,211.0,211.0,210.0,219.0,193.0,231.0,222.0,212.0,206.0,206.0,202.0,224.0,229.0,215.0,213.0,214.0,212.0,218.0,0.0
16:15:00.844 12/08/2009,237.0,242.0,228.0,220.0,236.0,231.0,239.0,232.0,241.0,253.0,256.0,230.0,242.0,244.0,216.0,235.0,233.0,244.0,240.0,234.0,263.0,141.0,84.0,70.0,232.0,148.0,192.0,258.0,227.0,232.0,222.0,234.0,226.0,229.0,225.0,222.0,186.0,215.0,238.0,257.0,232.0,255.0,254.0,267.0,231.0,248.0,220.0,225.0,223.0,232.0,205.0,239.0,231.0,220.0,220.0,221.0,216.0,228.0,232.0,218.0,201.0,208.0,211.0,212.0,0.0
16:15:00.850 12/08/2009,229.0,245.0,232.0,230.0,243.0,235.0,243.0,226.0,244.0,258.0,262.0,231.0,250.0,250.0,218.0,240.0,246.0,248.0,241.0,239.0,269.0,130.0,91.0,80.0,220.0,136.0,187.0,234.0,231.0,211.0,209.0,228.0,221.0,222.0,217.0,214.0,167.0,235.0,216.0,266.0,215.0,265.0,234.0,262.0,230.0,260.0,231.0,234.0,232.0,239.0,218.0,246.0,244.0,231.0,228.0,235.0,228.0,239.0,242.0,224.0,208.0,213.0,210.0,207.0,0.0
16:15:00.856 12/08/2009,223.0,243.0,230.0,225.0,243.0,237.0,243.0,228.0,246.0,261.0,261.0,236.0,250.0,251.0,227.0,248.0,254.0,254.0,251.0,246.0,277.0,126.0,91.0,81.0,238.0,133.0,192.0,240.0,241.0,213.0,211.0,235.0,229.0,229.0,225.0,224.0,185.0,235.0,223.0,243.0,227.0,242.0,244.0,262.0,239.0,250.0,233.0,240.0,239.0,244.0,226.0,254.0,254.0,233.0,217.0,239.0,233.0,248.0,248.0,224.0,225.0,220.0,208.0,198.0,0.0
16:15:00.863 12/08/2009,243.0,259.0,244.0,235.0,258.0,251.0,259.0,257.0,266.0,280.0,280.0,255.0,263.0,261.0,253.0,275.0,277.0,283.0,278.0,271.0,299.0,156.0,116.0,101.0,266.0,178.0,214.0,264.0,242.0,240.0,244.0,266.0,254.0,250.0,250.0,244.0,211.0,172.0,256.0,254.0,251.0,261.0,277.0,235.0,279.0,276.0,280.0,287.0,287.0,288.0,265.0,300.0,297.0,277.0,259.0,295.0,289.0,294.0,298.0,278.0,264.0,256.0,238.0,237.0,0.0
16:15:00.869 12/08/2009,267.0,284.0,268.0,259.0,274.0,266.0,272.0,280.0,288.0,303.0,304.0,270.0,282.0,279.0,281.0,301.0,301.0,306.0,299.0,292.0,320.0,158.0,121.0,108.0,251.0,201.0,223.0,271.0,220.0,241.0,248.0,276.0,263.0,259.0,252.0,237.0,196.0,272.0,255.0,268.0,241.0,271.0,285.0,245.0,289.0,285.0,295.0,292.0,290.0,291.0,269.0,299.0,296.0,277.0,268.0,291.0,284.0,289.0,295.0,279.0,290.0,290.0,277.0,280.0,0.0
16:15:00.875 12/08/2009,262.0,279.0,263.0,251.0,263.0,257.0,262.0,267.0,272.0,291.0,293.0,257.0,268.0,264.0,267.0,279.0,280.0,283.0,276.0,267.0,295.0,173.0,120.0,107.0,265.0,183.0,225.0,271.0,209.0,238.0,235.0,261.0,252.0,249.0,244.0,232.0,183.0,242.0,244.0,249.0,234.0,258.0,283.0,233.0,263.0,260.0,250.0,243.0,243.0,241.0,228.0,254.0,251.0,233.0,231.0,232.0,224.0,246.0,246.0,233.0,263.0,267.0,265.0,254.0,0.0
16:15:00.881 12/08/2009,234.0,245.0,230.0,218.0,244.0,238.0,246.0,232.0,236.0,252.0,259.0,230.0,241.0,246.0,229.0,236.0,236.0,241.0,239.0,237.0,264.0,158.0,112.0,98.0,247.0,174.0,211.0,251.0,252.0,222.0,220.0,245.0,234.0,231.0,231.0,227.0,181.0,216.0,232.0,259.0,232.0,262.0,283.0,260.0,249.0,257.0,232.0,225.0,224.0,220.0,212.0,238.0,234.0,218.0,223.0,222.0,212.0,227.0,232.0,219.0,217.0,221.0,221.0,199.0,0.0
16:15:00.888 12/08/2009,237.0,247.0,234.0,221.0,259.0,252.0,260.0,237.0,241.0,255.0,260.0,232.0,247.0,257.0,231.0,243.0,239.0,245.0,241.0,240.0,268.0,153.0,110.0,97.0,262.0,181.0,223.0,263.0,270.0,232.0,231.0,254.0,243.0,243.0,242.0,244.0,215.0,217.0,248.0,268.0,257.0,261.0,296.0,299.0,255.0,263.0,237.0,233.0,233.0,228.0,221.0,247.0,235.0,221.0,220.0,231.0,219.0,230.0,235.0,215.0,198.0,199.0,193.0,174.0,0.0
16:15:00.894 12/08/2009,250.0,258.0,240.0,225.0,257.0,251.0,257.0,256.0,256.0,268.0,267.0,237.0,251.0,260.0,250.0,263.0,255.0,258.0,254.0,250.0,278.0,156.0,121.0,109.0,267.0,169.0,216.0,247.0,266.0,247.0,238.0,258.0,244.0,240.0,238.0,230.0,192.0,244.0,268.0,268.0,277.0,268.0,298.0,268.0,275.0,271.0,264.0,266.0,266.0,263.0,246.0,271.0,259.0,246.0,240.0,269.0,259.0,266.0,265.0,248.0,224.0,223.0,213.0,210.0,0.0
16:15:00.900 12/08/2009,270.0,281.0,255.0,241.0,261.0,256.0,262.0,292.0,293.0,300.0,292.0,263.0,271.0,275.0,291.0,307.0,290.0,294.0,287.0,275.0,300.0,168.0,118.0,106.0,269.0,201.0,228.0,254.0,253.0,261.0,262.0,280.0,266.0,261.0,255.0,246.0,206.0,257.0,291.0,280.0,299.0,282.0,314.0,277.0,308.0,285.0,303.0,305.0,303.0,297.0,276.0,293.0,278.0,262.0,252.0,295.0,288.0,281.0,278.0,256.0,268.0,261.0,252.0,241.0,0.0
16:15:00.906 12/08/2009,295.0,305.0,277.0,263.0,273.0,268.0,273.0,315.0,309.0,317.0,300.0,271.0,272.0,278.0,305.0,316.0,294.0,300.0,284.0,276.0,297.0,177.0,115.0,100.0,274.0,230.0,239.0,256.0,185.0,274.0,276.0,293.0,274.0,266.0,257.0,244.0,213.0,233.0,297.0,275.0,308.0,281.0,327.0,281.0,304.0,284.0,293.0,289.0,288.0,282.0,260.0,284.0,271.0,260.0,254.0,285.0,272.0,263.0,275.0,265.0,277.0,271.0,270.0,241.0,0.0
16:15:00.913 12/08/2009,288.0,296.0,270.0,254.0,269.0,263.0,271.0,298.0,290.0,300.0,289.0,259.0,267.0,278.0,288.0,293.0,274.0,286.0,276.0,272.0,302.0,178.0,98.0,83.0,279.0,212.0,227.0,247.0,147.0,263.0,257.0,274.0,258.0,251.0,253.0,248.0,225.0,229.0,282.0,280.0,297.0,290.0,319.0,270.0,290.0,291.0,289.0,269.0,269.0,264.0,244.0,272.0,267.0,262.0,258.0,281.0,265.0,256.0,276.0,266.0,268.0,271.0,272.0,257.0,0.0
16:15:00.919 12/08/2009,271.0,278.0,257.0,234.0,263.0,257.0,265.0,273.0,272.0,280.0,274.0,247.0,263.0,278.0,270.0,271.0,257.0,268.0,265.0,263.0,298.0,208.0,145.0,136.0,302.0,221.0,238.0,271.0,313.0,269.0,265.0,277.0,267.0,258.0,255.0,242.0,199.0,289.0,287.0,286.0,300.0,286.0,327.0,299.0,288.0,289.0,289.0,263.0,263.0,260.0,246.0,272.0,267.0,262.0,262.0,279.0,263.0,255.0,271.0,260.0,260.0,269.0,263.0,275.0,0.0
16:15:00.925 12/08/2009,289.0,298.0,281.0,259.0,278.0,272.0,279.0,287.0,294.0,301.0,296.0,265.0,282.0,284.0,284.0,288.0,274.0,285.0,281.0,275.0,305.0,234.0,179.0,169.0,313.0,268.0,263.0,266.0,233.0,295.0,298.0,311.0,299.0,288.0,278.0,263.0,205.0,247.0,307.0,294.0,309.0,287.0,328.0,285.0,306.0,291.0,312.0,294.0,295.0,293.0,273.0,300.0,290.0,280.0,271.0,311.0,299.0,287.0,289.0,278.0,276.0,280.0,264.0,288.0,0.0
16:15:00.931 12/08/2009,325.0,340.0,326.0,307.0,316.0,311.0,318.0,328.0,338.0,351.0,347.0,313.0,322.0,308.0,326.0,342.0,325.0,340.0,331.0,319.0,334.0,259.0,203.0,190.0,342.0,307.0,299.0,288.0,274.0,326.0,336.0,358.0,340.0,329.0,320.0,306.0,258.0,274.0,326.0,307.0,320.0,309.0,334.0,265.0,330.0,312.0,343.0,347.0,346.0,350.0,322.0,344.0,332.0,315.0,300.0,351.0,343.0,334.0,330.0,316.0,317.0,316.0,299.0,319.0,0.0
16:15:00.938 12/08/2009,352.0,375.0,361.0,338.0,345.0,338.0,345.0,346.0,364.0,376.0,370.0,333.0,342.0,324.0,331.0,360.0,347.0,357.0,340.0,326.0,336.0,248.0,186.0,173.0,342.0,334.0,317.0,323.0,320.0,321.0,343.0,371.0,354.0,342.0,338.0,325.0,293.0,249.0,317.0,281.0,307.0,272.0,320.0,255.0,299.0,271.0,294.0,316.0,314.0,321.0,295.0,307.0,291.0,263.0,234.0,280.0,285.0,283.0,273.0,239.0,301.0,296.0,289.0,271.0,0.0
16:15:00.944 12/08/2009,341.0,364.0,352.0,332.0,335.0,328.0,335.0,324.0,344.0,356.0,345.0,310.0,316.0,295.0,303.0,328.0,321.0,326.0,311.0,296.0,300.0,245.0,180.0,166.0,335.0,313.0,318.0,340.0,279.0,306.0,323.0,351.0,339.0,328.0,320.0,307.0,260.0,249.0,297.0,270.0,285.0,252.0,298.0,257.0,286.0,250.0,280.0,291.0,290.0,290.0,270.0,286.0,272.0,255.0,228.0,270.0,268.0,272.0,265.0,244.0,256.0,253.0,251.0,216.0,0.0
16:15:00.950 12/08/2009,304.0,315.0,301.0,283.0,284.0,275.0,281.0,286.0,297.0,308.0,299.0,271.0,279.0,258.0,272.0,286.0,277.0,286.0,280.0,272.0,288.0,217.0,159.0,148.0,283.0,250.0,247.0,234.0,210.0,260.0,261.0,285.0,270.0,259.0,244.0,223.0,166.0,293.0,254.0,241.0,253.0,247.0,265.0,260.0,263.0,259.0,265.0,259.0,258.0,259.0,248.0,271.0,265.0,262.0,243.0,261.0,248.0,257.0,267.0,260.0,230.0,238.0,236.0,223.0,0.0
16:15:00.956 12/08/2009,253.0,258.0,246.0,237.0,241.0,234.0,241.0,249.0,258.0,268.0,269.0,251.0,259.0,251.0,246.0,262.0,253.0,265.0,263.0,259.0,282.0,180.0,134.0,124.0,256.0,231.0,210.0,203.0,191.0,228.0,233.0,257.0,242.0,235.0,227.0,214.0,179.0,254.0,235.0,249.0,242.0,250.0,260.0,256.0,256.0,256.0,254.0,252.0,252.0,254.0,249.0,265.0,258.0,246.0,227.0,248.0,237.0,245.0,250.0,227.0,224.0,234.0,227.0,224.0,0.0
16:15:00.963 12/08/2009,256.0,267.0,259.0,257.0,267.0,263.0,268.0,257.0,278.0,289.0,288.0,269.0,274.0,265.0,256.0,281.0,276.0,286.0,274.0,267.0,284.0,176.0,128.0,117.0,253.0,267.0,228.0,237.0,219.0,240.0,250.0,272.0,259.0,260.0,254.0,246.0,218.0,231.0,242.0,269.0,253.0,269.0,267.0,254.0,268.0,267.0,266.0,274.0,275.0,278.0,265.0,278.0,265.0,253.0,237.0,272.0,261.0,264.0,263.0,242.0,242.0,248.0,230.0,230.0,0.0
16:15:00.969 12/08/2009,265.0,280.0,273.0,273.0,283.0,278.0,285.0,265.0,291.0,304.0,301.0,276.0,287.0,280.0,265.0,288.0,286.0,296.0,282.0,275.0,295.0,196.0,120.0,108.0,275.0,232.0,233.0,246.0,216.0,246.0,246.0,269.0,256.0,267.0,271.0,267.0,254.0,256.0,252.0,293.0,266.0,296.0,272.0,271.0,268.0,281.0,267.0,265.0,262.0,262.0,253.0,274.0,262.0,257.0,246.0,262.0,244.0,249.0,262.0,247.0,254.0,258.0,244.0,242.0,0.0
16:15:00.975 12/08/2009,260.0,270.0,262.0,267.0,294.0,288.0,296.0,255.0,270.0,283.0,284.0,260.0,280.0,282.0,245.0,260.0,254.0,267.0,258.0,256.0,289.0,185.0,83.0,69.0,276.0,211.0,232.0,269.0,108.0,257.0,243.0,262.0,249.0,260.0,282.0,296.0,351.0,229.0,259.0,279.0,267.0,274.0,282.0,287.0,260.0,263.0,241.0,223.0,221.0,212.0,208.0,226.0,227.0,224.0,221.0,225.0,202.0,199.0,224.0,214.0,229.0,239.0,234.0,230.0,0.0
16:15:00.981 12/08/2009,249.0,243.0,228.0,221.0,253.0,247.0,251.0,235.0,231.0,237.0,231.0,210.0,224.0,235.0,214.0,218.0,201.0,213.0,206.0,207.0,243.0,169.0,94.0,83.0,281.0,210.0,194.0,225.0,176.0,243.0,223.0,231.0,212.0,204.0,206.0,188.0,165.0,207.0,241.0,241.0,259.0,238.0,281.0,259.0,250.0,233.0,218.0,191.0,191.0,178.0,170.0,186.0,190.0,196.0,201.0,203.0,180.0,176.0,199.0,193.0,190.0,202.0,204.0,200.0,0.0
16:15:00.988 12/08/2009,228.0,212.0,188.0,169.0,169.0,164.0,170.0,212.0,201.0,199.0,187.0,166.0,176.0,197.0,197.0,194.0,173.0,181.0,175.0,179.0,218.0,152.0,126.0,117.0,257.0,208.0,162.0,133.0,304.0,225.0,206.0,208.0,188.0,173.0,153.0,122.0,38.0,170.0,226.0,210.0,250.0,227.0,276.0,267.0,239.0,235.0,218.0,195.0,195.0,182.0,177.0,197.0,203.0,206.0,218.0,217.0,196.0,190.0,214.0,214.0,180.0,190.0,191.0,205.0,0.0
16:15:00.994 12/08/2009,224.0,220.0,205.0,194.0,204.0,200.0,208.0,220.0,219.0,219.0,213.0,196.0,215.0,230.0,217.0,216.0,200.0,210.0,208.0,218.0,251.0,173.0,109.0,97.0,257.0,219.0,202.0,216.0,209.0,230.0,220.0,229.0,217.0,218.0,219.0,211.0,203.0,264.0,228.0,272.0,242.0,274.0,269.0,268.0,241.0,254.0,230.0,214.0,214.0,206.0,202.0,222.0,224.0,215.0,214.0,222.0,206.0,193.0,216.0,201.0,195.0,200.0,191.0,218.0,0.0
16:15:01.000 12/08/2009,229.0,231.0,225.0,218.0,236.0,230.0,237.0,223.0,230.0,234.0,230.0,215.0,241.0,249.0,218.0,223.0,218.0,228.0,224.0,232.0,263.0,184.0,146.0,140.0,269.0,225.0,213.0,222.0,184.0,234.0,230.0,238.0,224.0,224.0,228.0,216.0,200.0,285.0,234.0,290.0,241.0,280.0,269.0,294.0,241.0,262.0,230.0,225.0,225.0,227.0,215.0,240.0,241.0,228.0,219.0,229.0,218.0,221.0,232.0,215.0,210.0,213.0,201.0,212.0,12587.0
16:15:01.006 12/08/2009,235.0,237.0,224.0,215.0,240.0,236.0,243.0,232.0,239.0,244.0,237.0,225.0,256.0,261.0,228.0,233.0,231.0,242.0,241.0,251.0,282.0,185.0,152.0,142.0,272.0,209.0,215.0,229.0,241.0,241.0,225.0,232.0,221.0,223.0,230.0,227.0,212.0,262.0,239.0,274.0,243.0,268.0,272.0,284.0,251.0,272.0,246.0,237.0,235.0,237.0,222.0,255.0,258.0,253.0,246.0,242.0,227.0,242.0,257.0,250.0,222.0,233.0,229.0,229.0,12587.0
16:15:01.013 12/08/2009,240.0,241.0,229.0,218.0,246.0,241.0,248.0,238.0,248.0,250.0,245.0,234.0,262.0,261.0,233.0,237.0,238.0,249.0,248.0,254.0,287.0,195.0,162.0,152.0,278.0,214.0,225.0,246.0,279.0,246.0,234.0,244.0,229.0,232.0,234.0,225.0,198.0,246.0,246.0,261.0,239.0,257.0,262.0,258.0,251.0,263.0,243.0,234.0,232.0,235.0,218.0,252.0,248.0,244.0,238.0,239.0,225.0,235.0,247.0,235.0,230.0,244.0,243.0,253.0,5140.0
16:15:01.019 12/08/2009,257.0,262.0,252.0,238.0,253.0,249.0,255.0,246.0,259.0,264.0,257.0,244.0,265.0,256.0,237.0,244.0,246.0,256.0,250.0,247.0,272.0,204.0,164.0,153.0,300.0,257.0,261.0,285.0,272.0,264.0,265.0,286.0,274.0,280.0,281.0,275.0,275.0,228.0,267.0,270.0,256.0,259.0,270.0,242.0,262.0,254.0,259.0,250.0,251.0,258.0,235.0,260.0,254.0,243.0,230.0,260.0,243.0,248.0,246.0,224.0,237.0,238.0,229.0,243.0,5140.0
16:15:01.025 12/08/2009,291.0,309.0,306.0,289.0,312.0,309.0,314.0,272.0,291.0,308.0,301.0,292.0,297.0,283.0,262.0,276.0,282.0,294.0,282.0,274.0,294.0,225.0,174.0,163.0,311.0,320.0,303.0,334.0,180.0,288.0,299.0,324.0,319.0,317.0,322.0,313.0,312.0,271.0,278.0,268.0,271.0,257.0,284.0,239.0,266.0,258.0,265.0,261.0,260.0,272.0,244.0,266.0,262.0,245.0,232.0,253.0,237.0,253.0,249.0,234.0,238.0,229.0,216.0,221.0,0.0
16:15:01.031 12/08/2009,290.0,301.0,298.0,279.0,289.0,281.0,288.0,260.0,281.0,298.0,291.0,274.0,270.0,261.0,248.0,262.0,275.0,284.0,266.0,252.0,272.0,237.0,185.0,176.0,315.0,294.0,284.0,280.0,196.0,277.0,281.0,298.0,290.0,284.0,280.0,260.0,238.0,282.0,256.0,241.0,254.0,236.0,271.0,231.0,253.0,241.0,247.0,250.0,250.0,255.0,220.0,250.0,246.0,226.0,212.0,252.0,234.0,248.0,240.0,230.0,231.0,227.0,221.0,227.0,0.0
16:15:01.038 12/08/2009,272.0,274.0,263.0,248.0,241.0,234.0,242.0,250.0,263.0,276.0,264.0,239.0,241.0,237.0,247.0,259.0,255.0,262.0,249.0,238.0,253.0,248.0,203.0,195.0,318.0,270.0,251.0,228.0,256.0,265.0,259.0,270.0,256.0,243.0,229.0,204.0,135.0,195.0,254.0,235.0,255.0,246.0,277.0,222.0,257.0,235.0,251.0,247.0,245.0,246.0,204.0,237.0,229.0,213.0,203.0,245.0,225.0,232.0,228.0,213.0,222.0,227.0,224.0,233.0,0.0
16:15:01.044 12/08/2009,252.0,252.0,242.0,227.0,224.0,219.0,225.0,238.0,246.0,250.0,237.0,222.0,233.0,242.0,231.0,237.0,227.0,239.0,223.0,227.0,249.0,194.0,138.0,126.0,259.0,250.0,229.0,275.0,165.0,233.0,222.0,239.0,229.0,222.0,229.0,215.0,205.0,205.0,221.0,231.0,225.0,220.0,231.0,257.0,229.0,222.0,217.0,216.0,216.0,216.0,183.0,213.0,206.0,194.0,182.0,210.0,196.0,205.0,205.0,191.0,201.0,209.0,202.0,210.0,0.0
16:15:01.050 12/08/2009,220.0,223.0,215.0,200.0,220.0,214.0,222.0,216.0,221.0,224.0,211.0,205.0,221.0,231.0,212.0,218.0,202.0,211.0,202.0,210.0,237.0,161.0,119.0,114.0,228.0,228.0,204.0,209.0,174.0,217.0,203.0,218.0,208.0,203.0,208.0,195.0,185.0,244.0,214.0,238.0,224.0,228.0,230.0,279.0,230.0,233.0,216.0,220.0,220.0,216.0,186.0,216.0,210.0,209.0,196.0,216.0,204.0,220.0,219.0,213.0,192.0,201.0,191.0,207.0,0.0
16:15:01.056 12/08/2009,228.0,227.0,215.0,192.0,215.0,212.0,218.0,227.0,226.0,233.0,218.0,214.0,224.0,232.0,221.0,230.0,215.0,225.0,218.0,223.0,252.0,167.0,153.0,147.0,234.0,239.0,211.0,195.0,223.0,228.0,216.0,228.0,218.0,212.0,212.0,204.0,186.0,240.0,230.0,260.0,235.0,260.0,258.0,244.0,242.0,251.0,221.0,229.0,228.0,225.0,201.0,229.0,220.0,220.0,209.0,218.0,211.0,230.0,226.0,215.0,196.0,206.0,195.0,218.0,0.0
16:15:01.063 12/08/2009,237.0,236.0,227.0,213.0,234.0,230.0,237.0,235.0,232.0,239.0,233.0,227.0,234.0,243.0,221.0,231.0,222.0,237.0,225.0,229.0,257.0,178.0,140.0,131.0,233.0,229.0,211.0,196.0,213.0,234.0,215.0,227.0,215.0,213.0,216.0,209.0,187.0,201.0,227.0,249.0,234.0,259.0,255.0,265.0,239.0,252.0,226.0,218.0,219.0,215.0,190.0,221.0,215.0,215.0,206.0,216.0,200.0,225.0,216.0,206.0,195.0,203.0,195.0,218.0,0.0
16:15:01.069 12/08/2009,217.0,216.0,208.0,195.0,214.0,209.0,216.0,207.0,208.0,214.0,223.0,213.0,216.0,230.0,190.0,199.0,195.0,219.0,209.0,212.0,243.0,164.0,115.0,105.0,221.0,214.0,199.0,223.0,281.0,220.0,200.0,208.0,201.0,197.0,206.0,203.0,196.0,256.0,205.0,247.0,213.0,251.0,232.0,282.0,202.0,242.0,184.0,183.0,182.0,185.0,163.0,205.0,200.0,200.0,193.0,169.0,156.0,203.0,199.0,188.0,175.0,185.0,186.0,209.0,0.0
16:15:01.075 12/08/2009,199.0,204.0,193.0,178.0,203.0,199.0,204.0,189.0,189.0,199.0,206.0,202.0,204.0,223.0,166.0,180.0,183.0,207.0,199.0,204.0,240.0,149.0,133.0,128.0,200.0,231.0,188.0,177.0,116.0,204.0,195.0,205.0,195.0,188.0,187.0,185.0,168.0,166.0,194.0,238.0,205.0,245.0,225.0,272.0,202.0,245.0,186.0,190.0,192.0,196.0,166.0,212.0,208.0,205.0,199.0,185.0,181.0,213.0,211.0,199.0,166.0,180.0,182.0,213.0,0.0
16:15:01.081 12/08/2009,206.0,213.0,208.0,194.0,215.0,212.0,219.0,206.0,211.0,224.0,222.0,218.0,224.0,242.0,195.0,207.0,206.0,225.0,221.0,229.0,259.0,162.0,121.0,112.0,218.0,231.0,191.0,158.0,44.0,212.0,202.0,216.0,206.0,205.0,204.0,206.0,188.0,153.0,203.0,249.0,209.0,256.0,214.0,263.0,223.0,260.0,219.0,219.0,219.0,225.0,195.0,236.0,232.0,228.0,219.0,215.0,209.0,239.0,235.0,222.0,191.0,201.0,200.0,235.0,0.0
16:15:01.088 12/08/2009,215.0,223.0,221.0,211.0,231.0,227.0,234.0,212.0,224.0,237.0,241.0,228.0,237.0,246.0,212.0,224.0,223.0,237.0,229.0,237.0,261.0,153.0,107.0,101.0,204.0,259.0,209.0,195.0,193.0,216.0,211.0,229.0,222.0,221.0,219.0,213.0,182.0,239.0,215.0,247.0,220.0,244.0,215.0,246.0,237.0,244.0,236.0,238.0,238.0,241.0,210.0,237.0,233.0,221.0,207.0,236.0,223.0,244.0,232.0,211.0,222.0,221.0,212.0,244.0,0.0
16:15:01.094 12/08/2009,244.0,250.0,242.0,234.0,238.0,233.0,240.0,249.0,254.0,264.0,265.0,244.0,246.0,243.0,248.0,263.0,253.0,261.0,241.0,244.0,264.0,208.0,172.0,168.0,257.0,282.0,244.0,237.0,266.0,256.0,247.0,261.0,254.0,248.0,238.0,225.0,169.0,262.0,254.0,242.0,256.0,233.0,238.0,235.0,271.0,244.0,272.0,271.0,270.0,272.0,238.0,261.0,250.0,237.0,220.0,263.0,254.0,267.0,257.0,239.0,248.0,243.0,226.0,268.0,0.0
16:15:01.100 12/08/2009,271.0,272.0,261.0,250.0,243.0,239.0,247.0,271.0,270.0,278.0,284.0,255.0,246.0,242.0,260.0,278.0,271.0,276.0,257.0,253.0,270.0,236.0,186.0,180.0,271.0,304.0,263.0,230.0,269.0,258.0,254.0,270.0,264.0,256.0,246.0,235.0,200.0,229.0,252.0,232.0,257.0,221.0,231.0,249.0,267.0,254.0,269.0,275.0,273.0,282.0,256.0,284.0,268.0,256.0,240.0,260.0,260.0,283.0,279.0,261.0,263.0,266.0,251.0,302.0,0.0
16:15:01.106 12/08/2009,272.0,285.0,275.0,268.0,264.0,259.0,265.0,273.0,280.0,291.0,305.0,278.0,269.0,260.0,260.0,284.0,287.0,295.0,285.0,274.0,289.0,236.0,195.0,190.0,254.0,341.0,286.0,259.0,253.0,257.0,269.0,290.0,284.0,282.0,276.0,275.0,266.0,247.0,254.0,258.0,259.0,253.0,231.0,233.0,269.0,268.0,269.0,278.0,277.0,291.0,273.0,298.0,280.0,263.0,246.0,260.0,260.0,285.0,280.0,257.0,267.0,273.0,264.0,298.0,0.0
16:15:01.113 12/08/2009,282.0,304.0,299.0,297.0,300.0,294.0,301.0,281.0,295.0,307.0,317.0,305.0,302.0,298.0,266.0,292.0,297.0,307.0,298.0,299.0,316.0,252.0,228.0,225.0,281.0,356.0,303.0,301.0,272.0,272.0,282.0,304.0,300.0,301.0,301.0,303.0,272.0,311.0,264.0,285.0,272.0,274.0,248.0,252.0,275.0,292.0,275.0,280.0,277.0,288.0,277.0,301.0,297.0,280.0,271.0,271.0,261.0,284.0,293.0,276.0,267.0,271.0,267.0,277.0,0.0
16:15:01.119 12/08/2009,279.0,294.0,295.0,293.0,319.0,313.0,319.0,272.0,286.0,299.0,313.0,307.0,313.0,307.0,261.0,283.0,290.0,299.0,295.0,303.0,326.0,243.0,207.0,201.0,286.0,349.0,299.0,305.0,243.0,270.0,271.0,294.0,293.0,295.0,303.0,316.0,289.0,293.0,268.0,282.0,282.0,304.0,255.0,259.0,281.0,307.0,287.0,283.0,284.0,287.0,280.0,299.0,294.0,289.0,286.0,288.0,271.0,289.0,295.0,290.0,277.0,278.0,275.0,282.0,0.0
16:15:01.125 12/08/2009,284.0,288.0,284.0,278.0,306.0,300.0,306.0,278.0,284.0,294.0,305.0,293.0,304.0,300.0,268.0,284.0,288.0,288.0,288.0,289.0,317.0,237.0,205.0,201.0,276.0,336.0,277.0,266.0,243.0,267.0,267.0,282.0,273.0,268.0,269.0,276.0,239.0,244.0,262.0,277.0,281.0,281.0,250.0,246.0,271.0,282.0,269.0,266.0,266.0,264.0,259.0,266.0,263.0,256.0,252.0,247.0,240.0,258.0,255.0,249.0,262.0,261.0,266.0,266.0,0.0
16:15:01.131 12/08/2009,279.0,273.0,255.0,244.0,255.0,249.0,256.0,269.0,268.0,271.0,275.0,259.0,262.0,253.0,256.0,266.0,267.0,264.0,255.0,254.0,279.0,235.0,195.0,187.0,265.0,320.0,249.0,260.0,197.0,258.0,253.0,261.0,252.0,245.0,235.0,237.0,187.0,212.0,262.0,240.0,277.0,244.0,249.0,228.0,267.0,251.0,257.0,254.0,255.0,244.0,241.0,246.0,240.0,228.0,220.0,240.0,235.0,240.0,233.0,216.0,230.0,224.0,236.0,213.0,0.0
16:15:01.138 12/08/2009,263.0,260.0,240.0,228.0,235.0,230.0,236.0,262.0,256.0,257.0,254.0,243.0,241.0,231.0,249.0,256.0,254.0,249.0,239.0,234.0,260.0,204.0,161.0,155.0,240.0,323.0,234.0,227.0,186.0,239.0,239.0,253.0,248.0,239.0,231.0,241.0,215.0,204.0,249.0,238.0,268.0,237.0,237.0,241.0,257.0,241.0,243.0,242.0,241.0,234.0,234.0,239.0,228.0,227.0,213.0,224.0,223.0,230.0,233.0,217.0,210.0,204.0,215.0,165.0,0.0
16:15:01.144 12/08/2009,246.0,248.0,238.0,233.0,231.0,228.0,233.0,243.0,239.0,242.0,243.0,232.0,230.0,229.0,227.0,238.0,234.0,229.0,227.0,224.0,250.0,205.0,168.0,161.0,239.0,279.0,228.0,236.0,207.0,227.0,220.0,234.0,229.0,221.0,225.0,229.0,211.0,261.0,221.0,232.0,243.0,228.0,228.0,261.0,234.0,242.0,223.0,216.0,214.0,209.0,215.0,220.0,213.0,226.0,220.0,210.0,205.0,217.0,229.0,231.0,209.0,212.0,222.0,171.0,0.0
16:15:01.150 12/08/2009,204.0,207.0,202.0,203.0,207.0,204.0,209.0,196.0,193.0,199.0,202.0,194.0,205.0,215.0,187.0,192.0,190.0,188.0,194.0,200.0,233.0,173.0,131.0,124.0,204.0,253.0,192.0,230.0,241.0,196.0,188.0,195.0,188.0,181.0,191.0,198.0,171.0,200.0,191.0,221.0,212.0,220.0,206.0,243.0,213.0,229.0,214.0,195.0,195.0,183.0,190.0,196.0,185.0,199.0,198.0,212.0,199.0,200.0,202.0,198.0,214.0,219.0,222.0,190.0,0.0
16:15:01.156 12/08/2009,195.0,193.0,181.0,172.0,199.0,194.0,202.0,194.0,183.0,189.0,192.0,186.0,204.0,222.0,187.0,186.0,185.0,183.0,188.0,193.0,231.0,184.0,124.0,117.0,212.0,267.0,179.0,186.0,209.0,220.0,204.0,203.0,195.0,185.0,190.0,208.0,186.0,116.0,217.0,224.0,232.0,213.0,227.0,246.0,227.0,225.0,233.0,204.0,205.0,191.0,193.0,200.0,184.0,189.0,192.0,225.0,208.0,203.0,195.0,186.0,222.0,215.0,208.0,183.0,0.0
16:15:01.163 12/08/2009,217.0,212.0,192.0,185.0,209.0,205.0,211.0,206.0,199.0,206.0,206.0,193.0,203.0,216.0,194.0,194.0,200.0,195.0,193.0,193.0,230.0,180.0,111.0,105.0,224.0,276.0,176.0,184.0,119.0,229.0,212.0,214.0,208.0,195.0,201.0,214.0,199.0,198.0,220.0,232.0,233.0,229.0,208.0,216.0,212.0,223.0,221.0,202.0,202.0,195.0,190.0,208.0,188.0,194.0,196.0,211.0,200.0,210.0,205.0,198.0,219.0,210.0,202.0,165.0,0.0
16:15:01.169 12/08/2009,212.0,213.0,196.0,192.0,186.0,180.0,186.0,203.0,204.0,214.0,211.0,185.0,188.0,197.0,188.0,195.0,200.0,202.0,199.0,194.0,227.0,191.0,158.0,154.0,233.0,246.0,159.0,136.0,203.0,205.0,202.0,215.0,210.0,188.0,169.0,166.0,114.0,249.0,201.0,221.0,205.0,229.0,195.0,224.0,200.0,232.0,219.0,213.0,214.0,214.0,210.0,231.0,208.0,216.0,215.0,220.0,215.0,232.0,232.0,227.0,221.0,221.0,222.0,170.0,0.0
16:15:01.175 12/08/2009,221.0,240.0,228.0,223.0,211.0,208.0,214.0,218.0,236.0,251.0,245.0,224.0,232.0,228.0,209.0,224.0,234.0,240.0,242.0,235.0,261.0,222.0,182.0,175.0,250.0,271.0,210.0,189.0,290.0,204.0,219.0,248.0,250.0,239.0,224.0,226.0,185.0,209.0,194.0,223.0,190.0,239.0,172.0,258.0,201.0,252.0,225.0,232.0,232.0,238.0,228.0,253.0,229.0,230.0,221.0,220.0,216.0,232.0,234.0,218.0,229.0,233.0,238.0,173.0,0.0
16:15:01.181 12/08/2009,229.0,261.0,253.0,251.0,253.0,249.0,256.0,218.0,244.0,258.0,257.0,237.0,255.0,238.0,202.0,218.0,231.0,240.0,243.0,235.0,257.0,221.0,167.0,157.0,253.0,305.0,237.0,261.0,202.0,200.0,222.0,255.0,260.0,253.0,254.0,260.0,255.0,240.0,187.0,231.0,189.0,231.0,161.0,235.0,181.0,239.0,201.0,212.0,213.0,222.0,203.0,232.0,214.0,215.0,207.0,199.0,197.0,216.0,215.0,202.0,216.0,219.0,224.0,158.0,0.0
16:15:01.188 12/08/2009,216.0,239.0,232.0,226.0,240.0,234.0,241.0,207.0,221.0,234.0,233.0,214.0,240.0,233.0,196.0,211.0,216.0,226.0,229.0,225.0,252.0,206.0,154.0,143.0,235.0,280.0,208.0,255.0,146.0,196.0,206.0,226.0,230.0,220.0,224.0,231.0,220.0,234.0,185.0,236.0,202.0,229.0,176.0,227.0,203.0,241.0,229.0,221.0,222.0,225.0,206.0,231.0,214.0,222.0,217.0,232.0,223.0,234.0,228.0,222.0,217.0,216.0,220.0,168.0,0.0
16:15:01.194 12/08/2009,196.0,203.0,196.0,191.0,206.0,202.0,208.0,200.0,205.0,219.0,222.0,202.0,219.0,220.0,208.0,214.0,216.0,218.0,223.0,218.0,244.0,179.0,154.0,150.0,216.0,232.0,173.0,183.0,216.0,195.0,182.0,190.0,187.0,178.0,177.0,182.0,138.0,192.0,195.0,206.0,217.0,207.0,191.0,202.0,223.0,220.0,252.0,232.0,231.0,231.0,205.0,231.0,212.0,211.0,200.0,254.0,241.0,243.0,227.0,215.0,239.0,231.0,230.0,191.0,0.0
16:15:01.200 12/08/2009,196.0,189.0,180.0,178.0,204.0,202.0,209.0,206.0,207.0,218.0,228.0,213.0,227.0,223.0,220.0,222.0,224.0,225.0,228.0,220.0,241.0,164.0,124.0,116.0,213.0,231.0,169.0,188.0,144.0,206.0,187.0,197.0,193.0,192.0,193.0,220.0,210.0,110.0,220.0,210.0,242.0,200.0,210.0,198.0,239.0,217.0,256.0,243.0,243.0,244.0,214.0,248.0,221.0,218.0,206.0,244.0,242.0,257.0,237.0,225.0,257.0,247.0,248.0,207.0,0.0
16:15:01.206 12/08/2009,230.0,223.0,212.0,210.0,236.0,233.0,240.0,231.0,233.0,243.0,249.0,226.0,237.0,229.0,233.0,238.0,243.0,241.0,244.0,227.0,244.0,184.0,137.0,130.0,243.0,254.0,190.0,192.0,130.0,231.0,223.0,227.0,223.0,216.0,213.0,228.0,209.0,227.0,239.0,197.0,261.0,206.0,211.0,185.0,243.0,219.0,256.0,249.0,251.0,252.0,229.0,253.0,227.0,223.0,216.0,249.0,249.0,269.0,244.0,232.0,261.0,254.0,257.0,216.0,0.0
16:15:01.213 12/08/2009,256.0,251.0,240.0,231.0,231.0,227.0,233.0,250.0,258.0,267.0,267.0,231.0,236.0,221.0,246.0,258.0,268.0,258.0,259.0,241.0,253.0,222.0,179.0,172.0,247.0,265.0,220.0,244.0,213.0,246.0,241.0,251.0,243.0,235.0,226.0,230.0,210.0,262.0,248.0,210.0,261.0,214.0,205.0,187.0,244.0,225.0,264.0,256.0,256.0,259.0,234.0,252.0,228.0,219.0,209.0,249.0,242.0,254.0,232.0,208.0,254.0,247.0,238.0,210.0,0.0
16:15:01.219 12/08/2009,254.0,252.0,240.0,233.0,231.0,227.0,233.0,237.0,249.0,258.0,263.0,222.0,234.0,225.0,223.0,241.0,252.0,244.0,240.0,227.0,243.0,230.0,205.0,198.0,256.0,278.0,218.0,240.0,193.0,241.0,242.0,249.0,240.0,235.0,221.0,221.0,164.0,221.0,231.0,215.0,237.0,217.0,195.0,185.0,206.0,211.0,212.0,217.0,216.0,224.0,197.0,222.0,202.0,191.0,187.0,191.0,195.0,213.0,204.0,183.0,213.0,203.0,194.0,166.0,0.0
16:15:01.225 12/08/2009,231.0,238.0,234.0,230.0,225.0,220.0,228.0,214.0,232.0,247.0,255.0,224.0,233.0,222.0,203.0,226.0,236.0,242.0,240.0,223.0,242.0,222.0,201.0,196.0,235.0,258.0,208.0,229.0,244.0,210.0,216.0,237.0,231.0,231.0,214.0,213.0,162.0,221.0,214.0,211.0,225.0,221.0,198.0,214.0,206.0,222.0,218.0,223.0,224.0,230.0,206.0,229.0,221.0,215.0,215.0,213.0,215.0,231.0,228.0,216.0,191.0,190.0,187.0,162.0,0.0
16:15:01.231 12/08/2009,215.0,225.0,227.0,222.0,237.0,232.0,238.0,209.0,222.0,237.0,249.0,234.0,245.0,235.0,202.0,219.0,231.0,233.0,244.0,232.0,255.0,199.0,153.0,143.0,211.0,227.0,189.0,248.0,164.0,199.0,192.0,207.0,204.0,208.0,209.0,223.0,207.0,178.0,201.0,225.0,213.0,226.0,188.0,221.0,204.0,234.0,225.0,221.0,220.0,220.0,210.0,234.0,229.0,236.0,236.0,227.0,224.0,243.0,252.0,250.0,209.0,225.0,230.0,230.0,0.0
16:15:01.238 12/08/2009,202.0,203.0,201.0,199.0,235.0,231.0,237.0,196.0,206.0,220.0,228.0,224.0,244.0,251.0,201.0,211.0,220.0,222.0,239.0,235.0,261.0,177.0,119.0,109.0,191.0,210.0,167.0,249.0,119.0,212.0,200.0,205.0,199.0,201.0,206.0,224.0,199.0,117.0,221.0,233.0,231.0,211.0,212.0,244.0,225.0,233.0,248.0,232.0,232.0,224.0,212.0,235.0,222.0,225.0,221.0,242.0,228.0,240.0,235.0,222.0,239.0,255.0,254.0,281.0,0.0
16:15:01.244 12/08/2009,225.0,221.0,214.0,205.0,231.0,226.0,232.0,219.0,220.0,233.0,230.0,215.0,234.0,224.0,212.0,219.0,216.0,223.0,228.0,218.0,237.0,194.0,153.0,147.0,203.0,220.0,167.0,212.0,173.0,228.0,217.0,215.0,205.0,197.0,192.0,201.0,199.0,215.0,228.0,218.0,230.0,222.0,222.0,216.0,216.0,206.0,220.0,204.0,203.0,202.0,178.0,200.0,181.0,180.0,174.0,188.0,177.0,190.0,177.0,156.0,215.0,211.0,202.0,222.0,0.0
16:15:01.250 12/08/2009,216.0,213.0,203.0,194.0,181.0,175.0,182.0,202.0,203.0,219.0,213.0,182.0,195.0,183.0,181.0,194.0,196.0,202.0,201.0,189.0,211.0,176.0,156.0,147.0,184.0,252.0,165.0,236.0,147.0,205.0,203.0,215.0,209.0,201.0,184.0,178.0,140.0,243.0,205.0,186.0,201.0,211.0,202.0,222.0,189.0,213.0,184.0,186.0,189.0,193.0,169.0,199.0,186.0,190.0,196.0,169.0,173.0,191.0,194.0,185.0,167.0,159.0,154.0,164.0,0.0
16:15:01.256 12/08/2009,218.0,227.0,220.0,218.0,195.0,193.0,198.0,203.0,218.0,235.0,234.0,204.0,212.0,208.0,187.0,206.0,215.0,220.0,225.0,213.0,238.0,203.0,167.0,160.0,234.0,215.0,181.0,237.0,136.0,214.0,211.0,228.0,223.0,218.0,208.0,204.0,142.0,191.0,212.0,211.0,202.0,229.0,209.0,219.0,201.0,229.0,213.0,213.0,215.0,214.0,193.0,223.0,210.0,211.0,214.0,220.0,213.0,221.0,218.0,210.0,171.0,172.0,161.0,176.0,0.0
16:15:01.263 12/08/2009,230.0,241.0,238.0,249.0,235.0,232.0,237.0,214.0,235.0,250.0,256.0,225.0,237.0,232.0,204.0,222.0,230.0,235.0,245.0,232.0,249.0,212.0,180.0,175.0,229.0,229.0,188.0,249.0,245.0,205.0,207.0,229.0,228.0,224.0,222.0,228.0,201.0,187.0,192.0,213.0,184.0,237.0,182.0,232.0,196.0,227.0,217.0,213.0,212.0,216.0,201.0,227.0,211.0,205.0,206.0,211.0,208.0,218.0,218.0,206.0,204.0,210.0,198.0,204.0,0.0
16:15:01.269 12/08/2009,202.0,217.0,215.0,224.0,221.0,216.0,223.0,186.0,209.0,226.0,232.0,205.0,223.0,218.0,176.0,200.0,212.0,219.0,233.0,219.0,238.0,175.0,133.0,127.0,205.0,218.0,159.0,258.0,164.0,186.0,188.0,208.0,206.0,201.0,199.0,214.0,187.0,195.0,176.0,204.0,169.0,219.0,168.0,222.0,187.0,225.0,204.0,212.0,211.0,224.0,209.0,236.0,224.0,217.0,218.0,210.0,216.0,231.0,237.0,234.0,225.0,230.0,232.0,216.0,0.0
16:15:01.275 12/08/2009,204.0,217.0,211.0,214.0,212.0,210.0,215.0,201.0,217.0,232.0,232.0,211.0,222.0,226.0,197.0,218.0,232.0,234.0,246.0,231.0,249.0,194.0,153.0,148.0,221.0,210.0,163.0,252.0,157.0,200.0,195.0,208.0,206.0,199.0,191.0,200.0,149.0,187.0,195.0,214.0,192.0,215.0,190.0,214.0,209.0,229.0,219.0,223.0,223.0,233.0,213.0,243.0,233.0,229.0,224.0,219.0,222.0,233.0,240.0,233.0,230.0,229.0,239.0,208.0,0.0
16:15:01.281 12/08/2009,204.0,214.0,207.0,209.0,205.0,201.0,206.0,206.0,213.0,228.0,229.0,203.0,218.0,219.0,200.0,216.0,230.0,229.0,240.0,224.0,246.0,205.0,176.0,168.0,210.0,237.0,166.0,241.0,156.0,212.0,203.0,209.0,209.0,199.0,196.0,204.0,173.0,188.0,213.0,206.0,211.0,209.0,209.0,207.0,215.0,217.0,209.0,214.0,212.0,216.0,194.0,228.0,215.0,206.0,199.0,205.0,205.0,217.0,212.0,192.0,220.0,212.0,212.0,177.0,0.0
16:15:01.288 12/08/2009,210.0,209.0,203.0,199.0,196.0,192.0,197.0,204.0,204.0,219.0,218.0,186.0,206.0,196.0,191.0,199.0,205.0,211.0,220.0,203.0,221.0,198.0,165.0,159.0,206.0,253.0,172.0,264.0,193.0,215.0,205.0,214.0,216.0,208.0,206.0,216.0,176.0,205.0,219.0,197.0,215.0,203.0,220.0,194.0,216.0,203.0,204.0,205.0,205.0,211.0,184.0,221.0,206.0,196.0,187.0,200.0,204.0,215.0,209.0,192.0,205.0,196.0,183.0,156.0,0.0
16:15:01.294 12/08/2009,232.0,233.0,229.0,234.0,227.0,225.0,231.0,229.0,233.0,246.0,251.0,219.0,241.0,227.0,212.0,223.0,229.0,235.0,245.0,232.0,248.0,217.0,191.0,186.0,236.0,263.0,208.0,277.0,242.0,226.0,225.0,247.0,248.0,246.0,244.0,254.0,216.0,191.0,232.0,220.0,224.0,213.0,230.0,198.0,230.0,223.0,222.0,218.0,217.0,228.0,193.0,234.0,215.0,209.0,199.0,207.0,211.0,227.0,219.0,204.0,206.0,199.0,187.0,165.0,0.0
16:15:01.300 12/08/2009,246.0,250.0,251.0,256.0,261.0,256.0,261.0,229.0,240.0,254.0,262.0,229.0,254.0,238.0,209.0,221.0,229.0,233.0,241.0,225.0,242.0,216.0,200.0,200.0,243.0,260.0,219.0,277.0,168.0,230.0,230.0,253.0,253.0,250.0,255.0,263.0,251.0,154.0,234.0,222.0,230.0,206.0,222.0,199.0,223.0,208.0,223.0,213.0,213.0,222.0,178.0,216.0,197.0,192.0,185.0,214.0,212.0,224.0,208.0,200.0,213.0,211.0,209.0,194.0,0.0
16:15:01.306 12/08/2009,233.0,236.0,235.0,225.0,231.0,223.0,229.0,223.0,222.0,234.0,235.0,202.0,218.0,204.0,202.0,214.0,215.0,215.0,223.0,199.0,216.0,178.0,165.0,162.0,199.0,245.0,188.0,283.0,178.0,211.0,210.0,222.0,222.0,213.0,211.0,211.0,162.0,261.0,213.0,199.0,213.0,196.0,214.0,177.0,209.0,184.0,214.0,202.0,203.0,202.0,156.0,196.0,177.0,171.0,166.0,202.0,201.0,208.0,190.0,182.0,212.0,210.0,212.0,201.0,0.0
16:15:01.313 12/08/2009,205.0,204.0,199.0,197.0,188.0,183.0,190.0,204.0,199.0,211.0,216.0,186.0,198.0,185.0,191.0,203.0,207.0,206.0,219.0,196.0,217.0,169.0,141.0,137.0,209.0,194.0,164.0,229.0,135.0,204.0,191.0,201.0,202.0,194.0,187.0,199.0,167.0,241.0,205.0,185.0,201.0,200.0,217.0,201.0,216.0,209.0,223.0,216.0,216.0,220.0,187.0,229.0,216.0,211.0,211.0,219.0,225.0,239.0,234.0,226.0,214.0,213.0,216.0,202.0,0.0
16:15:01.319 12/08/2009,216.0,223.0,216.0,227.0,223.0,220.0,225.0,225.0,223.0,243.0,251.0,229.0,245.0,225.0,213.0,231.0,239.0,246.0,265.0,249.0,265.0,186.0,171.0,174.0,227.0,208.0,177.0,215.0,193.0,221.0,213.0,227.0,225.0,222.0,208.0,214.0,172.0,184.0,228.0,231.0,230.0,235.0,213.0,216.0,230.0,242.0,233.0,240.0,239.0,251.0,229.0,267.0,253.0,244.0,236.0,226.0,240.0,266.0,264.0,244.0,230.0,230.0,234.0,213.0,0.0
16:15:01.325 12/08/2009,240.0,247.0,237.0,247.0,234.0,230.0,236.0,240.0,247.0,263.0,270.0,240.0,254.0,234.0,225.0,243.0,252.0,261.0,275.0,259.0,270.0,214.0,194.0,191.0,234.0,228.0,192.0,270.0,225.0,225.0,231.0,241.0,238.0,234.0,227.0,225.0,170.0,216.0,223.0,223.0,227.0,232.0,213.0,227.0,222.0,238.0,240.0,247.0,246.0,254.0,223.0,268.0,257.0,244.0,227.0,248.0,254.0,271.0,266.0,245.0,250.0,249.0,247.0,234.0,0.0
16:15:01.331 12/08/2009,251.0,257.0,251.0,252.0,238.0,233.0,240.0,246.0,259.0,270.0,277.0,243.0,258.0,243.0,232.0,253.0,265.0,268.0,280.0,265.0,285.0,209.0,178.0,172.0,230.0,234.0,197.0,292.0,209.0,216.0,234.0,254.0,252.0,240.0,237.0,238.0,196.0,183.0,213.0,226.0,219.0,244.0,206.0,238.0,223.0,260.0,248.0,253.0,253.0,265.0,228.0,276.0,268.0,261.0,252.0,256.0,260.0,282.0,280.0,268.0,268.0,271.0,264.0,268.0,0.0
16:15:01.338 12/08/2009,234.0,243.0,241.0,237.0,228.0,223.0,228.0,231.0,244.0,259.0,260.0,231.0,247.0,241.0,223.0,246.0,254.0,257.0,269.0,255.0,277.0,187.0,158.0,155.0,210.0,196.0,173.0,259.0,126.0,203.0,212.0,230.0,229.0,219.0,210.0,213.0,175.0,204.0,202.0,214.0,208.0,229.0,199.0,231.0,218.0,243.0,244.0,243.0,242.0,251.0,205.0,251.0,236.0,230.0,220.0,244.0,246.0,257.0,244.0,229.0,266.0,265.0,257.0,266.0,0.0
16:15:01.344 12/08/2009,214.0,223.0,218.0,217.0,205.0,201.0,206.0,210.0,223.0,235.0,231.0,206.0,226.0,222.0,201.0,220.0,228.0,228.0,239.0,223.0,248.0,173.0,156.0,152.0,203.0,184.0,162.0,254.0,127.0,190.0,196.0,214.0,214.0,207.0,195.0,204.0,176.0,207.0,184.0,213.0,191.0,225.0,180.0,211.0,198.0,222.0,219.0,219.0,219.0,227.0,186.0,222.0,210.0,205.0,194.0,223.0,225.0,237.0,222.0,210.0,231.0,225.0,218.0,220.0,0.0
16:15:01.350 12/08/2009,210.0,229.0,229.0,227.0,233.0,230.0,235.0,208.0,227.0,243.0,241.0,223.0,247.0,249.0,205.0,225.0,233.0,242.0,252.0,242.0,267.0,178.0,166.0,162.0,225.0,205.0,186.0,281.0,148.0,197.0,222.0,248.0,248.0,244.0,238.0,255.0,238.0,197.0,194.0,246.0,200.0,257.0,169.0,213.0,215.0,262.0,244.0,250.0,251.0,261.0,228.0,265.0,256.0,259.0,258.0,259.0,260.0,276.0,277.0,285.0,233.0,233.0,231.0,249.0,0.0
16:15:01.356 12/08/2009,237.0,262.0,263.0,261.0,271.0,266.0,271.0,233.0,255.0,271.0,268.0,244.0,272.0,270.0,233.0,257.0,260.0,265.0,276.0,262.0,282.0,206.0,175.0,173.0,256.0,232.0,216.0,316.0,142.0,214.0,243.0,270.0,266.0,257.0,247.0,255.0,219.0,249.0,202.0,219.0,204.0,211.0,167.0,216.0,222.0,237.0,254.0,251.0,251.0,259.0,217.0,251.0,235.0,231.0,222.0,253.0,248.0,254.0,245.0,233.0,252.0,253.0,246.0,275.0,0.0
16:15:01.363 12/08/2009,237.0,257.0,252.0,248.0,225.0,220.0,225.0,230.0,244.0,256.0,247.0,214.0,229.0,213.0,221.0,243.0,249.0,244.0,249.0,227.0,242.0,214.0,196.0,194.0,253.0,250.0,210.0,293.0,70.0,219.0,244.0,265.0,256.0,245.0,227.0,231.0,180.0,174.0,202.0,190.0,199.0,195.0,168.0,221.0,219.0,214.0,241.0,246.0,246.0,257.0,215.0,247.0,232.0,219.0,201.0,238.0,243.0,254.0,239.0,217.0,254.0,248.0,233.0,243.0,0.0
16:15:01.369 12/08/2009,237.0,250.0,245.0,243.0,220.0,215.0,221.0,229.0,242.0,256.0,248.0,213.0,228.0,213.0,217.0,241.0,249.0,247.0,250.0,228.0,243.0,223.0,191.0,189.0,268.0,202.0,205.0,260.0,210.0,214.0,229.0,242.0,240.0,232.0,215.0,218.0,167.0,197.0,206.0,199.0,200.0,200.0,175.0,211.0,218.0,216.0,224.0,238.0,237.0,251.0,222.0,251.0,242.0,233.0,209.0,217.0,231.0,257.0,247.0,232.0,234.0,224.0,214.0,194.0,0.0
16:15:01.375 12/08/2009,229.0,242.0,240.0,242.0,218.0,214.0,220.0,226.0,242.0,261.0,252.0,215.0,230.0,223.0,222.0,248.0,253.0,252.0,258.0,237.0,249.0,227.0,191.0,190.0,266.0,192.0,218.0,301.0,254.0,218.0,229.0,246.0,249.0,244.0,223.0,221.0,156.0,189.0,219.0,188.0,213.0,206.0,192.0,191.0,233.0,216.0,244.0,250.0,250.0,259.0,238.0,259.0,246.0,237.0,206.0,242.0,252.0,267.0,246.0,228.0,228.0,221.0,211.0,202.0,0.0
16:15:01.381 12/08/2009,238.0,261.0,257.0,258.0,233.0,229.0,235.0,244.0,258.0,277.0,271.0,232.0,244.0,233.0,238.0,260.0,263.0,262.0,264.0,243.0,254.0,225.0,196.0,194.0,259.0,216.0,227.0,304.0,117.0,229.0,239.0,259.0,261.0,260.0,243.0,249.0,200.0,230.0,227.0,202.0,222.0,216.0,209.0,204.0,236.0,220.0,232.0,234.0,233.0,241.0,223.0,239.0,230.0,219.0,195.0,209.0,222.0,235.0,220.0,203.0,219.0,213.0,205.0,212.0,0.0
16:15:01.388 12/08/2009,234.0,251.0,247.0,254.0,239.0,233.0,239.0,223.0,235.0,252.0,257.0,225.0,235.0,230.0,206.0,225.0,233.0,236.0,240.0,227.0,244.0,197.0,173.0,173.0,233.0,217.0,194.0,249.0,129.0,211.0,220.0,233.0,232.0,228.0,220.0,232.0,203.0,203.0,199.0,206.0,203.0,216.0,196.0,204.0,210.0,220.0,200.0,201.0,201.0,204.0,186.0,209.0,210.0,209.0,199.0,194.0,201.0,211.0,208.0,205.0,204.0,200.0,197.0,209.0,0.0
16:15:01.394 12/08/2009,208.0,216.0,209.0,218.0,210.0,205.0,211.0,196.0,203.0,217.0,223.0,199.0,216.0,225.0,190.0,201.0,209.0,212.0,226.0,217.0,247.0,178.0,165.0,166.0,228.0,180.0,165.0,256.0,205.0,194.0,195.0,201.0,199.0,193.0,190.0,202.0,166.0,198.0,190.0,211.0,205.0,222.0,202.0,200.0,225.0,231.0,229.0,213.0,214.0,206.0,201.0,217.0,214.0,220.0,214.0,235.0,231.0,229.0,225.0,224.0,217.0,216.0,208.0,224.0,0.0
16:15:01.400 12/08/2009,187.0,188.0,182.0,197.0,193.0,188.0,194.0,194.0,190.0,201.0,203.0,181.0,205.0,223.0,192.0,194.0,201.0,201.0,218.0,213.0,244.0,167.0,146.0,147.0,228.0,152.0,150.0,265.0,149.0,184.0,169.0,171.0,175.0,175.0,176.0,191.0,155.0,163.0,183.0,217.0,206.0,219.0,202.0,205.0,224.0,226.0,230.0,206.0,205.0,203.0,196.0,217.0,213.0,214.0,200.0,228.0,221.0,226.0,219.0,215.0,236.0,232.0,219.0,230.0,0.0
16:15:01.406 12/08/2009,163.0,165.0,162.0,177.0,183.0,181.0,186.0,169.0,169.0,182.0,191.0,167.0,188.0,209.0,166.0,173.0,181.0,181.0,200.0,195.0,229.0,155.0,141.0,146.0,215.0,128.0,130.0,239.0,195.0,167.0,149.0,146.0,155.0,155.0,159.0,173.0,150.0,202.0,160.0,204.0,181.0,208.0,185.0,221.0,186.0,204.0,191.0,169.0,168.0,172.0,158.0,192.0,191.0,192.0,189.0,178.0,175.0,200.0,199.0,200.0,219.0,218.0,213.0,212.0,0.0
16:15:01.413 12/08/2009,150.0,150.0,147.0,157.0,158.0,155.0,162.0,160.0,161.0,175.0,187.0,158.0,169.0,183.0,150.0,164.0,175.0,173.0,189.0,184.0,217.0,151.0,138.0,143.0,205.0,127.0,118.0,217.0,174.0,173.0,154.0,150.0,154.0,154.0,150.0,161.0,117.0,230.0,169.0,193.0,190.0,204.0,178.0,208.0,189.0,211.0,194.0,176.0,178.0,181.0,162.0,198.0,196.0,203.0,209.0,188.0,185.0,206.0,213.0,216.0,197.0,205.0,214.0,211.0,0.0
16:15:01.419 12/08/2009,176.0,179.0,173.0,177.0,181.0,178.0,184.0,180.0,184.0,199.0,205.0,176.0,188.0,202.0,162.0,178.0,191.0,187.0,204.0,197.0,230.0,140.0,133.0,134.0,191.0,172.0,139.0,243.0,180.0,175.0,174.0,177.0,178.0,179.0,186.0,211.0,208.0,135.0,176.0,201.0,181.0,211.0,183.0,208.0,191.0,221.0,182.0,178.0,178.0,181.0,172.0,203.0,200.0,203.0,205.0,176.0,178.0,197.0,209.0,210.0,183.0,201.0,219.0,212.0,0.0
16:15:01.425 12/08/2009,188.0,200.0,192.0,192.0,206.0,202.0,207.0,183.0,194.0,210.0,208.0,181.0,199.0,211.0,173.0,186.0,200.0,191.0,208.0,198.0,228.0,153.0,124.0,124.0,201.0,169.0,146.0,244.0,145.0,190.0,186.0,186.0,181.0,179.0,186.0,200.0,191.0,212.0,190.0,210.0,193.0,228.0,196.0,186.0,213.0,214.0,214.0,198.0,198.0,198.0,181.0,206.0,199.0,197.0,191.0,217.0,208.0,213.0,210.0,206.0,196.0,206.0,218.0,196.0,0.0
16:15:01.431 12/08/2009,195.0,194.0,180.0,173.0,174.0,168.0,175.0,199.0,199.0,204.0,202.0,173.0,189.0,202.0,197.0,203.0,209.0,198.0,206.0,202.0,232.0,175.0,147.0,153.0,206.0,126.0,117.0,183.0,171.0,189.0,176.0,169.0,159.0,152.0,138.0,143.0,100.0,167.0,185.0,187.0,212.0,220.0,189.0,227.0,222.0,230.0,230.0,215.0,215.0,214.0,187.0,214.0,212.0,215.0,216.0,231.0,224.0,234.0,225.0,230.0,223.0,226.0,230.0,201.0,0.0
16:15:01.438 12/08/2009,190.0,185.0,169.0,167.0,169.0,166.0,172.0,203.0,201.0,204.0,206.0,182.0,200.0,211.0,208.0,211.0,213.0,205.0,213.0,207.0,239.0,165.0,147.0,154.0,215.0,164.0,132.0,182.0,212.0,196.0,190.0,185.0,178.0,177.0,164.0,177.0,130.0,158.0,195.0,218.0,225.0,233.0,196.0,239.0,239.0,239.0,252.0,232.0,233.0,225.0,200.0,224.0,218.0,222.0,225.0,253.0,241.0,242.0,229.0,235.0,246.0,246.0,241.0,234.0,0.0
16:15:01.444 12/08/2009,222.0,221.0,210.0,212.0,210.0,208.0,213.0,229.0,226.0,239.0,241.0,215.0,230.0,236.0,230.0,237.0,238.0,232.0,238.0,229.0,261.0,214.0,200.0,206.0,260.0,237.0,195.0,258.0,205.0,232.0,234.0,239.0,233.0,238.0,227.0,233.0,199.0,271.0,223.0,249.0,240.0,260.0,214.0,254.0,249.0,260.0,259.0,239.0,238.0,233.0,219.0,241.0,237.0,237.0,244.0,251.0,239.0,247.0,241.0,242.0,249.0,250.0,246.0,260.0,0.0
16:15:01.450 12/08/2009,252.0,256.0,250.0,257.0,249.0,245.0,252.0,241.0,246.0,258.0,261.0,231.0,249.0,258.0,224.0,236.0,242.0,237.0,247.0,240.0,272.0,253.0,224.0,232.0,290.0,238.0,219.0,255.0,251.0,256.0,253.0,258.0,250.0,252.0,243.0,253.0,238.0,169.0,238.0,255.0,242.0,257.0,215.0,245.0,232.0,251.0,231.0,215.0,216.0,214.0,206.0,231.0,226.0,223.0,228.0,222.0,216.0,232.0,228.0,221.0,231.0,233.0,238.0,245.0,0.0
16:15:01.456 12/08/2009,249.0,256.0,247.0,247.0,241.0,235.0,241.0,229.0,240.0,250.0,250.0,217.0,242.0,242.0,208.0,223.0,233.0,234.0,244.0,234.0,261.0,245.0,203.0,206.0,279.0,232.0,222.0,281.0,258.0,244.0,253.0,259.0,254.0,254.0,249.0,256.0,227.0,287.0,231.0,249.0,239.0,258.0,203.0,240.0,230.0,249.0,239.0,234.0,237.0,243.0,233.0,261.0,253.0,250.0,242.0,243.0,244.0,267.0,264.0,265.0,232.0,237.0,248.0,227.0,0.0
16:15:01.463 12/08/2009,258.0,276.0,266.0,264.0,263.0,258.0,263.0,240.0,266.0,281.0,283.0,252.0,276.0,268.0,230.0,255.0,271.0,276.0,287.0,279.0,297.0,221.0,188.0,192.0,265.0,251.0,228.0,274.0,251.0,234.0,257.0,267.0,262.0,259.0,252.0,259.0,223.0,259.0,225.0,244.0,234.0,260.0,198.0,239.0,231.0,261.0,246.0,257.0,257.0,271.0,252.0,288.0,280.0,275.0,253.0,245.0,255.0,279.0,286.0,277.0,247.0,255.0,271.0,205.0,0.0
16:15:01.469 12/08/2009,250.0,263.0,249.0,243.0,232.0,226.0,232.0,238.0,258.0,269.0,271.0,238.0,252.0,247.0,230.0,254.0,267.0,263.0,273.0,257.0,276.0,213.0,215.0,223.0,254.0,210.0,187.0,219.0,223.0,233.0,239.0,240.0,230.0,222.0,206.0,197.0,131.0,198.0,227.0,211.0,230.0,227.0,203.0,214.0,231.0,231.0,241.0,252.0,251.0,260.0,232.0,268.0,255.0,240.0,223.0,243.0,253.0,260.0,257.0,239.0,253.0,256.0,264.0,195.0,0.0
16:15:01.475 12/08/2009,245.0,257.0,243.0,232.0,222.0,218.0,223.0,233.0,253.0,267.0,271.0,240.0,248.0,241.0,231.0,253.0,264.0,262.0,272.0,251.0,271.0,235.0,196.0,202.0,280.0,215.0,209.0,270.0,287.0,237.0,246.0,251.0,250.0,245.0,234.0,231.0,189.0,229.0,224.0,221.0,227.0,235.0,192.0,213.0,225.0,234.0,232.0,241.0,241.0,251.0,223.0,257.0,246.0,233.0,224.0,225.0,235.0,243.0,240.0,232.0,239.0,236.0,238.0,197.0,0.0
16:15:01.481 12/08/2009,234.0,247.0,238.0,237.0,238.0,233.0,239.0,213.0,232.0,244.0,253.0,228.0,241.0,240.0,210.0,227.0,235.0,239.0,247.0,237.0,258.0,232.0,193.0,198.0,277.0,211.0,199.0,245.0,195.0,222.0,232.0,233.0,232.0,230.0,226.0,232.0,213.0,182.0,208.0,211.0,226.0,237.0,186.0,211.0,215.0,231.0,219.0,219.0,219.0,224.0,200.0,228.0,222.0,219.0,214.0,217.0,221.0,228.0,227.0,227.0,220.0,222.0,219.0,209.0,0.0
16:15:01.488 12/08/2009,220.0,226.0,214.0,212.0,211.0,206.0,212.0,206.0,209.0,216.0,220.0,200.0,218.0,227.0,199.0,212.0,215.0,212.0,222.0,218.0,248.0,228.0,202.0,209.0,282.0,199.0,180.0,223.0,268.0,229.0,229.0,222.0,222.0,221.0,210.0,215.0,180.0,223.0,216.0,212.0,235.0,227.0,200.0,225.0,222.0,232.0,221.0,220.0,220.0,221.0,189.0,227.0,227.0,217.0,220.0,219.0,222.0,234.0,234.0,235.0,216.0,228.0,228.0,222.0,0.0
16:15:01.494 12/08/2009,223.0,225.0,214.0,207.0,211.0,208.0,212.0,217.0,217.0,223.0,220.0,200.0,219.0,237.0,210.0,224.0,223.0,213.0,221.0,218.0,246.0,209.0,185.0,190.0,263.0,178.0,159.0,212.0,241.0,212.0,213.0,210.0,203.0,201.0,197.0,205.0,182.0,181.0,201.0,215.0,230.0,209.0,178.0,233.0,229.0,227.0,235.0,227.0,227.0,221.0,196.0,229.0,220.0,215.0,216.0,242.0,237.0,242.0,235.0,234.0,235.0,250.0,249.0,242.0,0.0
16:15:01.500 12/08/2009,208.0,212.0,200.0,192.0,200.0,199.0,203.0,210.0,216.0,221.0,222.0,190.0,207.0,218.0,213.0,224.0,222.0,217.0,220.0,213.0,242.0,176.0,134.0,136.0,224.0,156.0,148.0,212.0,216.0,190.0,202.0,202.0,196.0,199.0,196.0,204.0,194.0,166.0,186.0,223.0,225.0,244.0,164.0,214.0,234.0,235.0,251.0,230.0,230.0,223.0,205.0,233.0,222.0,217.0,218.0,253.0,241.0,240.0,235.0,234.0,260.0,269.0,263.0,261.0,0.0
16:15:01.506 12/08/2009,218.0,229.0,216.0,208.0,207.0,204.0,210.0,215.0,224.0,234.0,238.0,203.0,219.0,223.0,213.0,222.0,227.0,229.0,232.0,223.0,250.0,195.0,156.0,162.0,233.0,171.0,172.0,245.0,184.0,202.0,216.0,221.0,219.0,220.0,209.0,209.0,147.0,222.0,203.0,222.0,232.0,234.0,175.0,233.0,234.0,231.0,231.0,214.0,214.0,218.0,199.0,224.0,224.0,208.0,203.0,210.0,208.0,211.0,215.0,209.0,242.0,242.0,243.0,232.0,0.0
16:15:01.513 12/08/2009,227.0,244.0,238.0,231.0,235.0,233.0,240.0,225.0,233.0,248.0,250.0,222.0,242.0,244.0,212.0,225.0,232.0,237.0,239.0,228.0,255.0,221.0,206.0,213.0,248.0,210.0,202.0,265.0,348.0,229.0,240.0,244.0,241.0,244.0,235.0,244.0,197.0,194.0,230.0,250.0,258.0,254.0,187.0,222.0,242.0,238.0,221.0,211.0,212.0,221.0,201.0,228.0,230.0,211.0,205.0,192.0,201.0,207.0,215.0,210.0,194.0,193.0,206.0,181.0,0.0
16:15:01.519 12/08/2009,239.0,252.0,246.0,243.0,254.0,252.0,257.0,231.0,237.0,249.0,250.0,224.0,245.0,253.0,218.0,230.0,238.0,235.0,239.0,232.0,264.0,213.0,207.0,215.0,250.0,191.0,200.0,275.0,267.0,222.0,232.0,235.0,232.0,237.0,237.0,247.0,219.0,279.0,213.0,253.0,233.0,260.0,188.0,243.0,244.0,252.0,230.0,221.0,222.0,227.0,214.0,235.0,237.0,230.0,232.0,213.0,222.0,228.0,237.0,236.0,182.0,190.0,206.0,182.0,0.0
16:15:01.525 12/08/2009,215.0,225.0,217.0,222.0,224.0,221.0,225.0,222.0,222.0,230.0,229.0,209.0,223.0,235.0,222.0,229.0,231.0,227.0,232.0,231.0,261.0,208.0,184.0,191.0,222.0,144.0,182.0,281.0,247.0,202.0,211.0,216.0,214.0,216.0,222.0,227.0,201.0,244.0,197.0,230.0,222.0,242.0,170.0,252.0,247.0,250.0,241.0,243.0,243.0,248.0,230.0,251.0,253.0,242.0,237.0,240.0,251.0,256.0,260.0,248.0,216.0,225.0,235.0,212.0,0.0
16:15:01.531 12/08/2009,221.0,238.0,225.0,235.0,242.0,240.0,246.0,242.0,241.0,249.0,256.0,240.0,256.0,267.0,244.0,257.0,260.0,258.0,271.0,267.0,294.0,185.0,146.0,147.0,196.0,188.0,192.0,278.0,144.0,200.0,222.0,237.0,235.0,241.0,254.0,272.0,283.0,166.0,197.0,257.0,228.0,267.0,161.0,255.0,251.0,277.0,263.0,275.0,275.0,288.0,265.0,294.0,294.0,278.0,261.0,273.0,286.0,298.0,295.0,279.0,274.0,279.0,280.0,249.0,0.0
16:15:01.538 12/08/2009,224.0,250.0,242.0,254.0,284.0,282.0,287.0,240.0,249.0,265.0,285.0,262.0,291.0,294.0,245.0,262.0,275.0,276.0,291.0,286.0,312.0,200.0,149.0,152.0,202.0,183.0,204.0,330.0,176.0,201.0,219.0,234.0,239.0,251.0,268.0,282.0,281.0,218.0,199.0,244.0,218.0,263.0,154.0,263.0,241.0,280.0,270.0,279.0,278.0,290.0,265.0,297.0,289.0,282.0,274.0,287.0,294.0,309.0,299.0,290.0,314.0,313.0,312.0,279.0,0.0
16:15:01.544 12/08/2009,227.0,249.0,248.0,250.0,260.0,254.0,259.0,235.0,250.0,265.0,279.0,253.0,274.0,268.0,237.0,256.0,266.0,267.0,276.0,268.0,299.0,239.0,208.0,215.0,232.0,176.0,204.0,297.0,337.0,206.0,225.0,237.0,238.0,243.0,237.0,228.0,155.0,301.0,197.0,254.0,202.0,259.0,139.0,235.0,222.0,260.0,246.0,247.0,246.0,251.0,233.0,260.0,257.0,251.0,249.0,249.0,252.0,274.0,262.0,263.0,305.0,302.0,304.0,288.0,0.0
16:15:01.550 12/08/2009,211.0,234.0,237.0,238.0,238.0,234.0,237.0,204.0,222.0,240.0,251.0,225.0,249.0,247.0,197.0,218.0,229.0,233.0,242.0,238.0,274.0,244.0,230.0,238.0,239.0,185.0,204.0,278.0,315.0,199.0,221.0,240.0,244.0,251.0,248.0,249.0,195.0,272.0,192.0,256.0,190.0,257.0,141.0,232.0,205.0,256.0,224.0,221.0,222.0,237.0,222.0,247.0,250.0,240.0,239.0,236.0,235.0,253.0,248.0,244.0,265.0,260.0,262.0,262.0,0.0
16:15:01.556 12/08/2009,228.0,264.0,267.0,268.0,284.0,280.0,285.0,230.0,246.0,268.0,282.0,258.0,286.0,278.0,220.0,244.0,259.0,267.0,271.0,267.0,298.0,282.0,249.0,257.0,273.0,234.0,259.0,343.0,256.0,241.0,267.0,288.0,296.0,308.0,312.0,319.0,297.0,284.0,239.0,281.0,226.0,285.0,190.0,240.0,242.0,278.0,269.0,260.0,261.0,276.0,262.0,284.0,285.0,266.0,254.0,276.0,271.0,284.0,271.0,264.0,252.0,246.0,240.0,251.0,0.0
16:15:01.563 12/08/2009,276.0,306.0,308.0,309.0,311.0,307.0,313.0,272.0,291.0,314.0,324.0,297.0,314.0,302.0,260.0,285.0,307.0,309.0,310.0,303.0,324.0,296.0,275.0,282.0,291.0,267.0,268.0,311.0,278.0,261.0,299.0,317.0,319.0,319.0,313.0,309.0,260.0,264.0,259.0,285.0,251.0,286.0,206.0,259.0,267.0,286.0,295.0,292.0,290.0,305.0,304.0,314.0,312.0,289.0,270.0,303.0,298.0,317.0,301.0,286.0,285.0,278.0,263.0,286.0,0.0
16:15:01.569 12/08/2009,296.0,320.0,319.0,324.0,311.0,306.0,310.0,286.0,307.0,325.0,336.0,311.0,314.0,300.0,269.0,295.0,316.0,320.0,318.0,305.0,319.0,273.0,241.0,246.0,294.0,266.0,266.0,308.0,263.0,259.0,309.0,325.0,323.0,323.0,315.0,318.0,284.0,267.0,257.0,282.0,258.0,278.0,211.0,271.0,263.0,275.0,272.0,280.0,278.0,289.0,290.0,302.0,294.0,272.0,251.0,269.0,269.0,300.0,284.0,265.0,301.0,294.0,281.0,289.0,0.0
16:15:01.575 12/08/2009,299.0,321.0,320.0,320.0,308.0,303.0,307.0,284.0,296.0,312.0,323.0,297.0,304.0,285.0,259.0,280.0,298.0,299.0,294.0,279.0,300.0,286.0,232.0,235.0,290.0,241.0,275.0,345.0,234.0,262.0,296.0,306.0,307.0,313.0,311.0,313.0,297.0,236.0,254.0,275.0,253.0,270.0,212.0,236.0,241.0,253.0,233.0,247.0,246.0,253.0,252.0,260.0,255.0,239.0,222.0,227.0,232.0,262.0,245.0,232.0,272.0,262.0,259.0,247.0,0.0
16:15:01.581 12/08/2009,259.0,277.0,275.0,271.0,281.0,277.0,280.0,246.0,253.0,262.0,272.0,250.0,269.0,263.0,230.0,241.0,258.0,249.0,242.0,238.0,270.0,263.0,219.0,226.0,256.0,188.0,239.0,287.0,202.0,229.0,251.0,253.0,254.0,261.0,261.0,266.0,251.0,196.0,221.0,248.0,237.0,250.0,194.0,222.0,238.0,234.0,242.0,239.0,240.0,231.0,218.0,222.0,218.0,210.0,202.0,253.0,241.0,237.0,218.0,203.0,248.0,230.0,220.0,221.0,0.0
16:15:01.588 12/08/2009,225.0,235.0,227.0,215.0,212.0,208.0,211.0,225.0,224.0,227.0,221.0,203.0,218.0,212.0,231.0,230.0,232.0,213.0,205.0,203.0,239.0,259.0,209.0,216.0,243.0,163.0,196.0,250.0,340.0,221.0,233.0,226.0,218.0,214.0,201.0,192.0,127.0,253.0,220.0,204.0,244.0,221.0,205.0,265.0,256.0,230.0,262.0,244.0,244.0,230.0,206.0,213.0,208.0,206.0,200.0,265.0,250.0,239.0,211.0,197.0,250.0,219.0,187.0,206.0,0.0
16:15:01.594 12/08/2009,219.0,222.0,207.0,200.0,192.0,189.0,195.0,228.0,219.0,219.0,218.0,202.0,220.0,221.0,230.0,228.0,226.0,212.0,213.0,218.0,259.0,240.0,199.0,204.0,218.0,130.0,176.0,248.0,314.0,209.0,206.0,204.0,196.0,199.0,191.0,190.0,146.0,233.0,201.0,231.0,222.0,237.0,193.0,239.0,235.0,243.0,227.0,224.0,225.0,225.0,210.0,223.0,225.0,223.0,216.0,229.0,227.0,252.0,229.0,221.0,250.0,220.0,191.0,204.0,0.0
16:15:01.600 12/08/2009,194.0,200.0,188.0,197.0,204.0,201.0,207.0,212.0,204.0,212.0,228.0,219.0,239.0,242.0,212.0,220.0,228.0,224.0,236.0,239.0,278.0,204.0,166.0,173.0,202.0,109.0,167.0,233.0,137.0,197.0,197.0,204.0,199.0,204.0,200.0,201.0,168.0,200.0,204.0,241.0,222.0,252.0,195.0,253.0,240.0,272.0,241.0,243.0,246.0,251.0,244.0,263.0,271.0,265.0,263.0,254.0,252.0,290.0,278.0,279.0,265.0,251.0,237.0,243.0,0.0
16:15:01.606 12/08/2009,220.0,231.0,216.0,219.0,223.0,220.0,224.0,241.0,233.0,243.0,259.0,239.0,256.0,257.0,234.0,247.0,254.0,250.0,260.0,255.0,291.0,225.0,169.0,173.0,227.0,173.0,185.0,232.0,190.0,224.0,235.0,237.0,227.0,227.0,216.0,216.0,180.0,190.0,228.0,235.0,239.0,249.0,200.0,246.0,244.0,254.0,242.0,243.0,243.0,248.0,234.0,253.0,254.0,237.0,224.0,240.0,239.0,268.0,247.0,236.0,268.0,259.0,257.0,253.0,0.0
16:15:01.613 12/08/2009,236.0,248.0,234.0,225.0,227.0,223.0,229.0,241.0,239.0,249.0,252.0,227.0,242.0,235.0,227.0,239.0,243.0,238.0,234.0,229.0,259.0,235.0,161.0,165.0,237.0,173.0,204.0,250.0,263.0,218.0,240.0,247.0,235.0,237.0,230.0,231.0,214.0,204.0,219.0,241.0,227.0,251.0,187.0,239.0,230.0,240.0,218.0,224.0,225.0,236.0,219.0,238.0,236.0,220.0,208.0,212.0,218.0,239.0,227.0,223.0,242.0,231.0,232.0,223.0,0.0
16:15:01.619 12/08/2009,246.0,260.0,242.0,231.0,234.0,232.0,236.0,248.0,244.0,256.0,250.0,229.0,243.0,241.0,224.0,238.0,239.0,237.0,228.0,230.0,260.0,278.0,221.0,229.0,270.0,207.0,214.0,223.0,253.0,243.0,257.0,259.0,246.0,244.0,229.0,229.0,204.0,166.0,233.0,241.0,232.0,247.0,204.0,254.0,230.0,247.0,216.0,227.0,227.0,240.0,226.0,243.0,243.0,237.0,228.0,212.0,218.0,241.0,243.0,244.0,217.0,207.0,215.0,201.0,0.0
16:15:01.625 12/08/2009,245.0,265.0,247.0,236.0,241.0,239.0,244.0,240.0,242.0,257.0,258.0,239.0,256.0,255.0,219.0,236.0,243.0,244.0,247.0,245.0,281.0,274.0,230.0,237.0,238.0,234.0,225.0,268.0,252.0,226.0,250.0,255.0,252.0,257.0,249.0,249.0,217.0,265.0,211.0,265.0,211.0,278.0,178.0,227.0,221.0,263.0,220.0,233.0,233.0,246.0,241.0,257.0,262.0,259.0,246.0,222.0,225.0,254.0,267.0,270.0,218.0,215.0,234.0,219.0,0.0
16:15:01.631 12/08/2009,224.0,251.0,247.0,248.0,254.0,249.0,255.0,227.0,230.0,247.0,261.0,247.0,270.0,267.0,216.0,230.0,240.0,247.0,254.0,256.0,289.0,271.0,214.0,222.0,251.0,174.0,226.0,285.0,367.0,214.0,229.0,233.0,234.0,248.0,241.0,240.0,190.0,270.0,200.0,261.0,201.0,266.0,163.0,256.0,221.0,252.0,224.0,227.0,227.0,232.0,233.0,240.0,242.0,241.0,225.0,226.0,226.0,241.0,250.0,242.0,239.0,239.0,256.0,249.0,0.0
16:15:01.638 12/08/2009,205.0,229.0,225.0,227.0,232.0,227.0,233.0,212.0,207.0,222.0,235.0,221.0,243.0,241.0,202.0,212.0,221.0,220.0,221.0,224.0,256.0,260.0,201.0,208.0,243.0,159.0,211.0,254.0,319.0,211.0,225.0,229.0,229.0,235.0,226.0,232.0,195.0,241.0,200.0,240.0,203.0,240.0,169.0,241.0,216.0,226.0,229.0,221.0,222.0,222.0,214.0,215.0,212.0,210.0,202.0,235.0,230.0,225.0,222.0,211.0,257.0,248.0,247.0,257.0,0.0
16:15:01.644 12/08/2009,232.0,253.0,243.0,232.0,233.0,231.0,234.0,230.0,227.0,239.0,245.0,221.0,236.0,229.0,215.0,232.0,238.0,224.0,219.0,213.0,242.0,277.0,221.0,228.0,266.0,205.0,235.0,278.0,328.0,237.0,263.0,270.0,265.0,265.0,251.0,251.0,215.0,244.0,227.0,238.0,232.0,231.0,188.0,243.0,238.0,222.0,248.0,241.0,243.0,243.0,229.0,231.0,219.0,211.0,206.0,252.0,251.0,240.0,227.0,214.0,267.0,244.0,225.0,243.0,0.0
16:15:01.650 12/08/2009,262.0,282.0,271.0,254.0,246.0,243.0,248.0,254.0,254.0,267.0,269.0,237.0,244.0,231.0,242.0,258.0,262.0,250.0,239.0,230.0,252.0,294.0,222.0,227.0,274.0,212.0,242.0,274.0,360.0,256.0,275.0,282.0,273.0,276.0,261.0,261.0,229.0,243.0,247.0,243.0,259.0,243.0,203.0,247.0,264.0,243.0,280.0,272.0,274.0,273.0,258.0,266.0,252.0,244.0,233.0,292.0,285.0,271.0,264.0,252.0,293.0,262.0,234.0,260.0,0.0
16:15:01.656 12/08/2009,272.0,294.0,279.0,267.0,263.0,259.0,266.0,277.0,275.0,285.0,288.0,257.0,267.0,259.0,265.0,279.0,281.0,275.0,267.0,258.0,284.0,295.0,228.0,234.0,276.0,235.0,244.0,250.0,296.0,272.0,285.0,292.0,286.0,289.0,277.0,280.0,251.0,233.0,259.0,263.0,268.0,267.0,218.0,244.0,272.0,262.0,279.0,274.0,274.0,278.0,269.0,272.0,268.0,260.0,245.0,269.0,264.0,264.0,269.0,258.0,297.0,275.0,254.0,277.0,0.0
16:15:01.663 12/08/2009,277.0,300.0,290.0,282.0,286.0,284.0,288.0,274.0,274.0,289.0,300.0,277.0,288.0,286.0,248.0,265.0,277.0,276.0,270.0,272.0,300.0,303.0,235.0,242.0,276.0,239.0,256.0,276.0,339.0,265.0,278.0,284.0,284.0,293.0,289.0,294.0,272.0,259.0,241.0,279.0,249.0,286.0,187.0,249.0,241.0,266.0,231.0,231.0,231.0,241.0,246.0,254.0,255.0,246.0,232.0,210.0,214.0,229.0,246.0,231.0,262.0,249.0,248.0,258.0,0.0
16:15:01.669 12/08/2009,238.0,261.0,261.0,267.0,278.0,273.0,278.0,227.0,234.0,251.0,271.0,257.0,271.0,268.0,200.0,216.0,233.0,242.0,242.0,246.0,275.0,263.0,206.0,213.0,232.0,192.0,234.0,274.0,315.0,225.0,243.0,250.0,257.0,269.0,274.0,280.0,275.0,241.0,215.0,251.0,235.0,275.0,170.0,261.0,213.0,248.0,198.0,199.0,201.0,214.0,224.0,234.0,230.0,215.0,207.0,185.0,190.0,209.0,220.0,202.0,211.0,202.0,211.0,201.0,0.0
16:15:01.675 12/08/2009,230.0,253.0,251.0,260.0,267.0,265.0,268.0,229.0,231.0,248.0,265.0,252.0,261.0,254.0,206.0,223.0,238.0,244.0,236.0,235.0,262.0,266.0,208.0,215.0,246.0,211.0,236.0,246.0,321.0,233.0,253.0,259.0,265.0,274.0,270.0,269.0,247.0,241.0,228.0,258.0,229.0,258.0,208.0,249.0,231.0,238.0,212.0,215.0,216.0,227.0,233.0,231.0,225.0,214.0,210.0,199.0,208.0,222.0,223.0,215.0,192.0,180.0,187.0,171.0,0.0
16:15:01.681 12/08/2009,256.0,275.0,266.0,265.0,254.0,250.0,256.0,256.0,256.0,265.0,274.0,247.0,251.0,251.0,234.0,244.0,254.0,252.0,238.0,235.0,262.0,289.0,222.0,228.0,265.0,230.0,248.0,282.0,363.0,260.0,272.0,273.0,271.0,272.0,262.0,248.0,218.0,268.0,248.0,257.0,245.0,252.0,229.0,243.0,248.0,244.0,233.0,231.0,230.0,233.0,238.0,229.0,227.0,223.0,222.0,216.0,223.0,222.0,230.0,227.0,211.0,199.0,201.0,192.0,0.0
16:15:01.688 12/08/2009,253.0,265.0,249.0,238.0,221.0,216.0,223.0,242.0,240.0,240.0,246.0,213.0,216.0,214.0,220.0,223.0,230.0,222.0,204.0,200.0,230.0,263.0,196.0,205.0,244.0,233.0,231.0,249.0,328.0,251.0,259.0,256.0,252.0,247.0,232.0,219.0,193.0,238.0,240.0,226.0,242.0,228.0,229.0,241.0,231.0,210.0,225.0,216.0,218.0,209.0,209.0,200.0,197.0,194.0,187.0,216.0,215.0,204.0,209.0,193.0,228.0,212.0,209.0,210.0,0.0
16:15:01.694 12/08/2009,247.0,257.0,245.0,231.0,208.0,205.0,212.0,240.0,235.0,237.0,237.0,215.0,211.0,204.0,220.0,225.0,222.0,219.0,204.0,201.0,231.0,283.0,228.0,237.0,274.0,200.0,231.0,233.0,346.0,254.0,260.0,257.0,253.0,250.0,231.0,215.0,175.0,223.0,240.0,231.0,245.0,227.0,234.0,240.0,238.0,223.0,227.0,227.0,226.0,220.0,213.0,215.0,216.0,214.0,210.0,218.0,224.0,228.0,231.0,221.0,230.0,215.0,214.0,209.0,0.0
16:15:01.700 12/08/2009,244.0,258.0,253.0,248.0,237.0,234.0,238.0,241.0,239.0,246.0,253.0,234.0,242.0,232.0,227.0,238.0,233.0,231.0,225.0,223.0,254.0,274.0,213.0,221.0,265.0,168.0,229.0,246.0,280.0,233.0,246.0,246.0,246.0,251.0,243.0,234.0,209.0,208.0,218.0,238.0,240.0,242.0,215.0,232.0,239.0,239.0,236.0,235.0,235.0,229.0,230.0,231.0,228.0,224.0,224.0,227.0,235.0,244.0,240.0,233.0,234.0,225.0,229.0,214.0,0.0
16:15:01.706 12/08/2009,223.0,237.0,233.0,228.0,231.0,228.0,233.0,225.0,222.0,230.0,244.0,221.0,235.0,233.0,221.0,228.0,226.0,220.0,216.0,215.0,250.0,250.0,194.0,202.0,230.0,162.0,216.0,241.0,295.0,211.0,227.0,225.0,227.0,235.0,229.0,231.0,229.0,167.0,192.0,233.0,229.0,238.0,195.0,218.0,221.0,222.0,229.0,222.0,223.0,220.0,218.0,218.0,213.0,206.0,208.0,215.0,222.0,223.0,222.0,212.0,235.0,228.0,230.0,223.0,0.0
16:15:01.713 12/08/2009,206.0,217.0,218.0,213.0,231.0,227.0,234.0,211.0,209.0,219.0,236.0,222.0,227.0,230.0,208.0,216.0,225.0,228.0,220.0,216.0,250.0,239.0,176.0,186.0,222.0,152.0,215.0,246.0,229.0,201.0,216.0,221.0,223.0,234.0,232.0,241.0,230.0,245.0,184.0,232.0,207.0,232.0,192.0,236.0,216.0,230.0,228.0,222.0,224.0,231.0,234.0,231.0,230.0,217.0,217.0,219.0,228.0,228.0,233.0,221.0,236.0,228.0,224.0,241.0,0.0
16:15:01.719 12/08/2009,205.0,224.0,224.0,219.0,235.0,232.0,238.0,214.0,221.0,234.0,246.0,238.0,241.0,242.0,208.0,223.0,239.0,247.0,238.0,233.0,264.0,232.0,177.0,186.0,219.0,153.0,216.0,250.0,176.0,202.0,218.0,228.0,225.0,239.0,233.0,237.0,220.0,285.0,187.0,235.0,202.0,242.0,185.0,228.0,216.0,245.0,238.0,230.0,232.0,238.0,258.0,250.0,244.0,232.0,230.0,237.0,243.0,243.0,248.0,241.0,250.0,244.0,234.0,288.0,0.0
16:15:01.725 12/08/2009,216.0,234.0,234.0,225.0,224.0,221.0,227.0,217.0,229.0,240.0,248.0,234.0,238.0,240.0,202.0,222.0,239.0,243.0,233.0,233.0,266.0,253.0,219.0,229.0,234.0,174.0,220.0,201.0,373.0,209.0,232.0,243.0,233.0,240.0,221.0,221.0,188.0,193.0,187.0,228.0,194.0,238.0,176.0,229.0,200.0,238.0,211.0,211.0,211.0,218.0,243.0,231.0,226.0,220.0,220.0,204.0,209.0,215.0,227.0,222.0,243.0,242.0,240.0,297.0,0.0
16:15:01.731 12/08/2009,226.0,248.0,250.0,246.0,235.0,232.0,238.0,218.0,233.0,242.0,251.0,235.0,242.0,244.0,194.0,220.0,232.0,232.0,230.0,231.0,265.0,258.0,227.0,234.0,246.0,219.0,237.0,217.0,300.0,219.0,254.0,266.0,254.0,259.0,240.0,239.0,199.0,243.0,195.0,259.0,199.0,259.0,178.0,230.0,200.0,249.0,195.0,206.0,208.0,211.0,235.0,216.0,223.0,221.0,233.0,182.0,198.0,204.0,226.0,228.0,219.0,222.0,235.0,265.0,0.0
16:15:01.738 12/08/2009,227.0,250.0,252.0,242.0,235.0,232.0,237.0,211.0,227.0,234.0,239.0,227.0,240.0,240.0,188.0,213.0,216.0,215.0,211.0,214.0,253.0,253.0,213.0,221.0,249.0,219.0,228.0,222.0,260.0,211.0,239.0,244.0,238.0,244.0,234.0,231.0,203.0,225.0,189.0,234.0,202.0,228.0,180.0,246.0,196.0,221.0,190.0,196.0,196.0,188.0,202.0,185.0,187.0,188.0,193.0,173.0,190.0,180.0,189.0,185.0,189.0,185.0,199.0,208.0,0.0
16:15:01.744 12/08/2009,209.0,224.0,220.0,204.0,215.0,211.0,215.0,198.0,204.0,207.0,208.0,196.0,211.0,211.0,191.0,204.0,197.0,192.0,182.0,185.0,225.0,242.0,196.0,204.0,242.0,184.0,202.0,161.0,281.0,204.0,215.0,212.0,207.0,217.0,210.0,215.0,198.0,196.0,182.0,220.0,202.0,225.0,189.0,228.0,209.0,211.0,214.0,203.0,203.0,187.0,195.0,186.0,182.0,184.0,188.0,200.0,208.0,185.0,191.0,182.0,184.0,169.0,172.0,177.0,0.0
16:15:01.750 12/08/2009,195.0,205.0,201.0,190.0,210.0,208.0,213.0,197.0,197.0,204.0,207.0,205.0,214.0,219.0,200.0,211.0,205.0,203.0,200.0,205.0,245.0,221.0,170.0,177.0,219.0,153.0,199.0,192.0,290.0,191.0,202.0,204.0,208.0,223.0,220.0,233.0,239.0,182.0,177.0,239.0,206.0,243.0,199.0,251.0,221.0,242.0,247.0,232.0,231.0,216.0,230.0,231.0,228.0,228.0,230.0,240.0,246.0,232.0,240.0,233.0,225.0,211.0,203.0,219.0,0.0
16:15:01.756 12/08/2009,186.0,196.0,195.0,200.0,219.0,215.0,220.0,188.0,187.0,202.0,218.0,213.0,218.0,223.0,190.0,200.0,203.0,207.0,208.0,211.0,246.0,219.0,178.0,186.0,223.0,131.0,181.0,159.0,170.0,176.0,184.0,184.0,188.0,200.0,199.0,201.0,181.0,228.0,161.0,218.0,195.0,219.0,186.0,235.0,194.0,219.0,208.0,195.0,194.0,187.0,205.0,210.0,204.0,203.0,204.0,185.0,199.0,202.0,214.0,205.0,233.0,226.0,228.0,227.0,0.0
16:15:01.763 12/08/2009,177.0,187.0,184.0,187.0,192.0,188.0,195.0,174.0,171.0,187.0,209.0,195.0,198.0,205.0,168.0,181.0,190.0,200.0,195.0,199.0,233.0,235.0,210.0,217.0,221.0,169.0,187.0,140.0,177.0,193.0,208.0,204.0,210.0,214.0,211.0,209.0,175.0,225.0,178.0,226.0,201.0,230.0,195.0,228.0,199.0,228.0,207.0,199.0,200.0,200.0,222.0,222.0,218.0,215.0,217.0,200.0,213.0,214.0,228.0,227.0,218.0,219.0,237.0,215.0,0.0
16:15:01.769 12/08/2009,215.0,228.0,226.0,222.0,230.0,229.0,233.0,202.0,196.0,214.0,233.0,217.0,228.0,234.0,184.0,197.0,211.0,219.0,213.0,216.0,252.0,251.0,213.0,218.0,246.0,203.0,220.0,193.0,239.0,222.0,241.0,242.0,243.0,248.0,244.0,248.0,240.0,205.0,194.0,228.0,206.0,232.0,208.0,230.0,197.0,219.0,199.0,188.0,188.0,188.0,209.0,211.0,199.0,194.0,193.0,180.0,188.0,190.0,197.0,194.0,193.0,192.0,216.0,190.0,0.0
16:15:01.775 12/08/2009,216.0,225.0,224.0,223.0,227.0,222.0,229.0,188.0,190.0,203.0,215.0,199.0,209.0,224.0,171.0,184.0,198.0,201.0,192.0,196.0,231.0,241.0,191.0,193.0,232.0,186.0,212.0,158.0,192.0,213.0,231.0,235.0,235.0,238.0,232.0,239.0,240.0,162.0,193.0,224.0,213.0,226.0,213.0,222.0,201.0,209.0,194.0,187.0,190.0,185.0,203.0,196.0,187.0,187.0,184.0,184.0,192.0,192.0,188.0,188.0,184.0,175.0,187.0,170.0,0.0
16:15:01.781 12/08/2009,227.0,241.0,237.0,229.0,225.0,222.0,228.0,224.0,222.0,229.0,231.0,206.0,209.0,224.0,208.0,221.0,225.0,224.0,206.0,204.0,238.0,262.0,205.0,210.0,251.0,199.0,220.0,152.0,198.0,243.0,259.0,257.0,256.0,251.0,234.0,231.0,227.0,238.0,233.0,238.0,251.0,236.0,246.0,224.0,242.0,228.0,238.0,228.0,229.0,225.0,234.0,219.0,211.0,207.0,209.0,231.0,233.0,222.0,215.0,216.0,215.0,201.0,197.0,200.0,0.0
16:15:01.788 12/08/2009,256.0,265.0,254.0,233.0,206.0,203.0,209.0,252.0,244.0,249.0,246.0,211.0,202.0,205.0,227.0,237.0,237.0,231.0,209.0,202.0,230.0,249.0,209.0,214.0,239.0,203.0,209.0,165.0,203.0,240.0,257.0,258.0,251.0,245.0,221.0,207.0,160.0,232.0,229.0,218.0,239.0,224.0,223.0,192.0,233.0,212.0,242.0,225.0,226.0,218.0,220.0,213.0,206.0,196.0,193.0,242.0,229.0,216.0,208.0,199.0,248.0,229.0,216.0,221.0,0.0
16:15:01.794 12/08/2009,246.0,259.0,249.0,229.0,218.0,216.0,221.0,237.0,237.0,241.0,239.0,216.0,210.0,214.0,216.0,228.0,225.0,223.0,206.0,204.0,232.0,249.0,210.0,215.0,235.0,206.0,219.0,173.0,270.0,239.0,248.0,250.0,248.0,251.0,238.0,235.0,223.0,199.0,218.0,203.0,218.0,209.0,206.0,217.0,211.0,210.0,220.0,201.0,201.0,189.0,193.0,192.0,192.0,187.0,188.0,203.0,200.0,192.0,192.0,193.0,240.0,221.0,217.0,190.0,0.0
16:15:01.800 12/08/2009,227.0,235.0,227.0,211.0,214.0,212.0,215.0,206.0,203.0,207.0,204.0,186.0,197.0,206.0,184.0,189.0,188.0,183.0,177.0,184.0,218.0,257.0,222.0,229.0,240.0,210.0,209.0,169.0,267.0,224.0,234.0,230.0,226.0,229.0,219.0,217.0,202.0,184.0,195.0,194.0,194.0,185.0,199.0,223.0,197.0,194.0,209.0,186.0,186.0,174.0,181.0,172.0,180.0,175.0,178.0,200.0,199.0,188.0,181.0,185.0,214.0,199.0,205.0,155.0,0.0
16:15:01.806 12/08/2009,211.0,213.0,206.0,183.0,194.0,191.0,196.0,192.0,184.0,185.0,184.0,165.0,186.0,196.0,183.0,184.0,180.0,166.0,173.0,177.0,215.0,218.0,171.0,174.0,201.0,237.0,189.0,173.0,158.0,201.0,219.0,216.0,210.0,213.0,210.0,220.0,221.0,189.0,180.0,203.0,189.0,201.0,175.0,195.0,191.0,196.0,204.0,192.0,193.0,186.0,190.0,178.0,186.0,185.0,192.0,198.0,198.0,208.0,192.0,198.0,205.0,195.0,203.0,152.0,0.0
16:15:01.813 12/08/2009,195.0,195.0,187.0,173.0,177.0,174.0,179.0,185.0,177.0,179.0,182.0,162.0,176.0,189.0,185.0,188.0,188.0,176.0,178.0,178.0,218.0,183.0,156.0,163.0,173.0,228.0,150.0,106.0,186.0,186.0,193.0,192.0,180.0,175.0,163.0,161.0,118.0,178.0,165.0,177.0,172.0,185.0,177.0,186.0,194.0,196.0,210.0,204.0,205.0,202.0,201.0,193.0,191.0,190.0,191.0,206.0,211.0,219.0,198.0,193.0,214.0,206.0,205.0,167.0,0.0
