Time and date,Fc5,Fc3,Fc1,Fcz,Fc2,Fc4,Fc6,C5,C3,C1,Cz,C2,C4,C6,Cp5,Cp3,Cp1,Cpz,Cp2,Cp4,Cp6,Fp1,Fpz,Fp2,Af7,Af3,Afz,Af4,Af8,F7,F5,F3,F1,Fz,F2,F4,F6,F8,Ft7,Ft8,T7,T8,T9,T10,Tp7,Tp8,P7,P5,P3,P1,Pz,P2,P4,P6,P8,Po7,Po3,Poz,Po4,Po8,O1,Oz,O2,Iz,EDF Annotations
16:15:00.000 12/08/2009,27.0,-6.0,-51.0,-86.0,-71.0,-97.0,49.0,-18.0,-25.0,-52.0,-38.0,8.0,5.0,-30.0,48.0,-7.0,-17.0,-84.0,-5.0,-2.0,-12.0,-411.0,-449.0,-389.0,-313.0,-304.0,-199.0,-180.0,-174.0,-188.0,-117.0,-197.0,-181.0,-141.0,-126.0,-81.0,-48.0,-185.0,-131.0,-185.0,11.0,-149.0,-62.0,-6.0,-16.0,-145.0,-85.0,-29.0,-90.0,-66.0,-44.0,-58.0,-106.0,-133.0,10.0,-80.0,-18.0,-80.0,-60.0,-82.0,-8.0,-154.0,-128.0,-178.0,12331.0
16:15:00.006 12/08/2009,-65.0,-73.0,-95.0,-105.0,-74.0,-87.0,23.0,-63.0,-73.0,-94.0,-68.0,-24.0,-26.0,-51.0,29.0,-42.0,-44.0,-103.0,-27.0,-39.0,-81.0,-345.0,-361.0,-370.0,-260.0,-194.0,-220.0,-175.0,-310.0,-96.0,-103.0,-139.0,-144.0,-127.0,-126.0,-133.0,-121.0,-106.0,54.0,90.0,119.0,-41.0,-126.0,55.0,63.0,-73.0,65.0,33.0,-36.0,-14.0,-10.0,-27.0,-76.0,-86.0,64.0,-17.0,34.0,-39.0,-33.0,-62.0,41.0,-101.0,-80.0,-95.0,12331.0
16:15:00.013 12/08/2009,-21.0,-13.0,-51.0,-73.0,-97.0,-191.0,-237.0,-26.0,-51.0,-73.0,-58.0,-38.0,-64.0,-118.0,15.0,-48.0,-48.0,-112.0,-41.0,-51.0,-77.0,-378.0,-427.0,-408.0,-295.0,-262.0,-214.0,-111.0,-205.0,-276.0,-246.0,-133.0,-171.0,-157.0,-167.0,-169.0,-333.0,-99.0,-43.0,-29.0,2.0,-45.0,-75.0,17.0,-59.0,-52.0,-125.0,-74.0,-116.0,-91.0,-75.0,-81.0,-116.0,-110.0,92.0,-96.0,-50.0,-112.0,-81.0,-116.0,-41.0,-182.0,-163.0,-176.0,5140.0
16:15:00.019 12/08/2009,-36.0,-69.0,-112.0,-128.0,-114.0,-138.0,-55.0,-90.0,-96.0,-120.0,-87.0,-39.0,-40.0,-54.0,0.0,-85.0,-87.0,-139.0,-46.0,-24.0,-27.0,-415.0,-422.0,-486.0,-450.0,-302.0,-243.0,-140.0,-344.0,-197.0,-184.0,-167.0,-177.0,-144.0,-122.0,-108.0,91.0,-65.0,10.0,10.0,16.0,-175.0,-94.0,56.0,-49.0,-39.0,-53.0,-36.0,-108.0,-79.0,-63.0,-54.0,-91.0,-93.0,60.0,-96.0,-41.0,-99.0,-50.0,-57.0,-18.0,-146.0,-132.0,-124.0,5140.0
16:15:00.025 12/08/2009,-32.0,-48.0,-81.0,-97.0,-83.0,-129.0,-35.0,-59.0,-78.0,-83.0,-50.0,-23.0,-23.0,-52.0,-7.0,-48.0,-40.0,-94.0,-18.0,-25.0,-59.0,-420.0,-375.0,-434.0,-290.0,-188.0,-165.0,-143.0,-391.0,-119.0,-22.0,-50.0,-84.0,-68.0,-43.0,-9.0,-129.0,-260.0,51.0,-59.0,-67.0,-14.0,-52.0,-6.0,10.0,-2.0,-36.0,15.0,-41.0,3.0,16.0,23.0,-18.0,-62.0,77.0,-8.0,33.0,-13.0,20.0,-26.0,91.0,-51.0,-29.0,-47.0,11008.0
16:15:00.031 12/08/2009,-55.0,-4.0,-21.0,-29.0,-10.0,-26.0,91.0,-103.0,-60.0,-56.0,-6.0,32.0,40.0,71.0,-26.0,-60.0,-34.0,-82.0,5.0,15.0,-8.0,-409.0,-365.0,-442.0,-410.0,-308.0,-221.0,-309.0,-169.0,-188.0,-163.0,-157.0,-181.0,-173.0,-186.0,-191.0,-188.0,-193.0,-59.0,-133.0,-93.0,-116.0,-31.0,-13.0,-78.0,-127.0,-159.0,-74.0,-126.0,-90.0,-81.0,-76.0,-119.0,-145.0,-55.0,-97.0,-50.0,-108.0,-66.0,-70.0,-1.0,-140.0,-114.0,-116.0,11008.0
16:15:00.038 12/08/2009,-144.0,-112.0,-135.0,-146.0,-150.0,-220.0,-154.0,-161.0,-134.0,-134.0,-93.0,-75.0,-110.0,-184.0,-70.0,-106.0,-96.0,-145.0,-74.0,-83.0,-127.0,-411.0,-422.0,-427.0,-135.0,-354.0,-210.0,-202.0,-134.0,-165.0,-344.0,-197.0,-187.0,-135.0,-121.0,-138.0,-182.0,-180.0,-83.0,-3.0,68.0,-112.0,-62.0,-11.0,13.0,-96.0,18.0,33.0,-45.0,-17.0,-12.0,-6.0,-51.0,-71.0,76.0,30.0,48.0,-32.0,2.0,-15.0,78.0,-68.0,-58.0,-50.0,5424.0
16:15:00.044 12/08/2009,27.0,14.0,-20.0,-32.0,-44.0,-105.0,-8.0,14.0,7.0,-13.0,1.0,21.0,7.0,-31.0,76.0,14.0,10.0,-56.0,21.0,16.0,-23.0,-312.0,-336.0,-322.0,-14.0,-112.0,-137.0,-301.0,-12.0,-7.0,50.0,-83.0,-86.0,-64.0,-47.0,-5.0,-212.0,-237.0,109.0,68.0,200.0,-69.0,-115.0,92.0,-22.0,3.0,-24.0,-7.0,-64.0,-29.0,-25.0,-20.0,-55.0,-86.0,49.0,-73.0,-31.0,-80.0,-49.0,-76.0,3.0,-137.0,-116.0,-140.0,5424.0
16:15:00.050 12/08/2009,-76.0,-38.0,-60.0,-64.0,-32.0,-54.0,23.0,-99.0,-83.0,-89.0,-61.0,-22.0,-34.0,-96.0,-71.0,-110.0,-92.0,-142.0,-64.0,-65.0,-95.0,-542.0,-401.0,-381.0,-381.0,-278.0,-234.0,-237.0,-162.0,-252.0,-136.0,-180.0,-185.0,-161.0,-153.0,-114.0,-184.0,-71.0,-87.0,-168.0,-180.0,-194.0,-60.0,34.0,-5.0,-134.0,-103.0,-65.0,-124.0,-77.0,-70.0,-57.0,-100.0,-112.0,14.0,-49.0,-16.0,-92.0,-46.0,-65.0,36.0,-112.0,-102.0,-88.0,12342.0
16:15:00.056 12/08/2009,-56.0,-33.0,-56.0,-70.0,-60.0,-86.0,161.0,-109.0,-67.0,-60.0,-42.0,2.0,6.0,21.0,-4.0,-43.0,-36.0,-86.0,-17.0,-15.0,-56.0,-460.0,-383.0,-377.0,-310.0,-175.0,-185.0,-113.0,-148.0,-241.0,-157.0,-97.0,-121.0,-105.0,-97.0,-107.0,-134.0,-185.0,-27.0,16.0,168.0,-43.0,-86.0,94.0,-17.0,-28.0,-86.0,-35.0,-81.0,-32.0,-22.0,-22.0,-60.0,-87.0,58.0,-102.0,-29.0,-72.0,-29.0,-53.0,0.0,-121.0,-84.0,-132.0,12342.0
16:15:00.063 12/08/2009,15.0,25.0,-11.0,-35.0,-43.0,-91.0,29.0,-17.0,-12.0,-16.0,-1.0,27.0,21.0,-44.0,-4.0,-34.0,-9.0,-51.0,24.0,30.0,-6.0,-338.0,-342.0,-348.0,-408.0,-237.0,-178.0,-135.0,-253.0,-147.0,-215.0,-99.0,-113.0,-91.0,-75.0,-36.0,-191.0,-245.0,21.0,-18.0,-28.0,83.0,-103.0,-2.0,-70.0,57.0,-118.0,-46.0,-85.0,-31.0,-16.0,3.0,-14.0,-4.0,252.0,-44.0,-20.0,-76.0,29.0,97.0,-30.0,-143.0,-96.0,-140.0,12846.0
16:15:00.069 12/08/2009,-51.0,-56.0,-89.0,-97.0,-98.0,-143.0,-40.0,-126.0,-109.0,-99.0,-77.0,-31.0,-47.0,-68.0,-76.0,-108.0,-83.0,-126.0,-42.0,-26.0,-34.0,-393.0,-372.0,-423.0,-195.0,-351.0,-239.0,-81.0,-203.0,-266.0,-239.0,-187.0,-190.0,-148.0,-137.0,-129.0,33.0,-205.0,-58.0,75.0,-77.0,-67.0,-60.0,50.0,-22.0,5.0,-56.0,-27.0,-83.0,-41.0,-30.0,-31.0,-62.0,-80.0,83.0,-77.0,5.0,-59.0,-47.0,-145.0,83.0,-77.0,-80.0,-53.0,12846.0
16:15:00.075 12/08/2009,-22.0,3.0,-29.0,-47.0,-52.0,-100.0,77.0,-53.0,-24.0,-23.0,-14.0,11.0,28.0,73.0,69.0,7.0,6.0,-56.0,13.0,9.0,-31.0,-290.0,-265.0,-296.0,-161.0,-208.0,-148.0,-27.0,-31.0,-63.0,-48.0,-69.0,-99.0,-81.0,-86.0,-105.0,15.0,-99.0,33.0,47.0,63.0,-151.0,-72.0,-70.0,188.0,-191.0,110.0,84.0,10.0,29.0,25.0,4.0,-46.0,-105.0,-4.0,12.0,56.0,-16.0,-11.0,-29.0,73.0,-66.0,-40.0,-49.0,21524.0
16:15:00.081 12/08/2009,10.0,13.0,-28.0,-55.0,-62.0,-88.0,52.0,-36.0,-21.0,-36.0,-34.0,-1.0,-7.0,12.0,13.0,-36.0,-28.0,-86.0,-23.0,-24.0,-65.0,-332.0,-359.0,-376.0,-281.0,-197.0,-196.0,-148.0,-269.0,-112.0,-73.0,-118.0,-143.0,-127.0,-124.0,-111.0,10.0,-161.0,-80.0,-81.0,80.0,-308.0,-99.0,42.0,-167.0,-127.0,-93.0,3.0,-63.0,-36.0,-34.0,-39.0,-80.0,-97.0,86.0,-35.0,14.0,-54.0,-22.0,-59.0,63.0,-83.0,-74.0,-49.0,21524.0
16:15:00.088 12/08/2009,78.0,24.0,-36.0,-68.0,-84.0,-124.0,-22.0,14.0,-17.0,-45.0,-53.0,-12.0,-27.0,-25.0,26.0,-31.0,-32.0,-93.0,-17.0,-17.0,-32.0,-382.0,-382.0,-332.0,-198.0,-306.0,-181.0,-208.0,-246.0,-110.0,-75.0,-75.0,-116.0,-130.0,-144.0,-144.0,-126.0,-266.0,15.0,-124.0,15.0,115.0,-48.0,66.0,13.0,10.0,20.0,30.0,-54.0,-32.0,-37.0,-32.0,-65.0,-70.0,80.0,11.0,21.0,-67.0,-30.0,-15.0,4.0,-130.0,-103.0,-141.0,5168.0
16:15:00.094 12/08/2009,-46.0,-18.0,-58.0,-87.0,-116.0,-163.0,-166.0,-54.0,-37.0,-54.0,-65.0,-41.0,-71.0,-172.0,53.0,-10.0,-27.0,-97.0,-25.0,-36.0,-63.0,-383.0,-284.0,-281.0,-263.0,-154.0,-186.0,-219.0,-111.0,-147.0,-166.0,-105.0,-122.0,-107.0,-91.0,-65.0,-155.0,-150.0,95.0,37.0,144.0,-35.0,16.0,43.0,81.0,86.0,7.0,27.0,-19.0,5.0,6.0,0.0,-43.0,-71.0,34.0,-10.0,33.0,-43.0,-33.0,-78.0,58.0,-92.0,-68.0,-91.0,5168.0
16:15:00.100 12/08/2009,7.0,7.0,-44.0,-64.0,-88.0,-108.0,-67.0,-55.0,-44.0,-55.0,-60.0,-30.0,-65.0,-119.0,-10.0,-59.0,-59.0,-130.0,-63.0,-86.0,-159.0,-403.0,-369.0,-358.0,-292.0,-227.0,-255.0,-311.0,-203.0,-84.0,-121.0,-151.0,-178.0,-180.0,-176.0,-162.0,-110.0,-295.0,-12.0,-103.0,33.0,-114.0,-152.0,31.0,-83.0,-271.0,-165.0,-80.0,-133.0,-100.0,-90.0,-100.0,-155.0,-193.0,-127.0,-112.0,-53.0,-111.0,-92.0,-96.0,-1.0,-143.0,-122.0,-122.0,0.0
16:15:00.106 12/08/2009,-30.0,-19.0,-61.0,-68.0,-70.0,-62.0,15.0,-49.0,-40.0,-40.0,-38.0,1.0,1.0,-51.0,37.0,2.0,-8.0,-69.0,14.0,0.0,-48.0,-379.0,-351.0,-315.0,-232.0,-150.0,-98.0,-207.0,2.0,-20.0,-57.0,-55.0,-68.0,-34.0,-3.0,28.0,-79.0,-5.0,86.0,13.0,52.0,2.0,14.0,49.0,98.0,-62.0,33.0,65.0,-9.0,18.0,20.0,12.0,-39.0,-73.0,53.0,-2.0,34.0,-29.0,2.0,3.0,54.0,-84.0,-63.0,-101.0,0.0
16:15:00.113 12/08/2009,-17.0,1.0,-40.0,-55.0,-77.0,-123.0,-90.0,-64.0,-34.0,-49.0,-46.0,-19.0,-31.0,-29.0,5.0,-36.0,-33.0,-87.0,-17.0,-27.0,-65.0,-305.0,-318.0,-369.0,-189.0,-234.0,-219.0,-147.0,-277.0,-128.0,-73.0,-117.0,-145.0,-130.0,-139.0,-156.0,-399.0,-460.0,101.0,-25.0,136.0,-124.0,-98.0,-44.0,21.0,-61.0,-90.0,-28.0,-67.0,-20.0,-13.0,-12.0,-53.0,-76.0,42.0,-88.0,-13.0,-43.0,-15.0,-16.0,26.0,-112.0,-86.0,-115.0,0.0
16:15:00.119 12/08/2009,-55.0,-33.0,-65.0,-87.0,-116.0,-149.0,-118.0,-93.0,-70.0,-82.0,-77.0,-51.0,-85.0,-107.0,-39.0,-82.0,-81.0,-130.0,-67.0,-87.0,-134.0,-428.0,-378.0,-370.0,-288.0,-371.0,-257.0,-165.0,-329.0,-308.0,-197.0,-213.0,-206.0,-188.0,-187.0,-196.0,-28.0,-224.0,-117.0,-96.0,-257.0,-207.0,-94.0,70.0,-56.0,-148.0,-91.0,-54.0,-100.0,-64.0,-42.0,-45.0,-102.0,-127.0,2.0,-65.0,-11.0,-44.0,-37.0,-86.0,51.0,-80.0,-60.0,-68.0,0.0
16:15:00.125 12/08/2009,-40.0,-26.0,-45.0,-54.0,-57.0,-70.0,-8.0,-86.0,-20.0,-20.0,-4.0,36.0,46.0,45.0,41.0,18.0,27.0,-18.0,61.0,53.0,16.0,-303.0,-319.0,-288.0,-89.0,-150.0,-138.0,-3.0,-124.0,-39.0,-38.0,-65.0,-83.0,-47.0,-34.0,-18.0,73.0,-181.0,-1.0,54.0,117.0,-53.0,9.0,22.0,34.0,-1.0,48.0,83.0,41.0,77.0,98.0,95.0,58.0,45.0,234.0,42.0,90.0,55.0,87.0,61.0,120.0,-3.0,22.0,8.0,0.0
16:15:00.131 12/08/2009,9.0,61.0,37.0,36.0,78.0,164.0,463.0,20.0,30.0,27.0,47.0,128.0,163.0,155.0,35.0,6.0,23.0,-12.0,77.0,82.0,40.0,-460.0,-336.0,-275.0,-373.0,-272.0,-149.0,-36.0,-298.0,-180.0,-164.0,-125.0,-133.0,-84.0,-59.0,-8.0,-14.0,-297.0,-63.0,89.0,-139.0,-143.0,-115.0,60.0,-61.0,-51.0,-136.0,-83.0,-134.0,-88.0,-65.0,-75.0,-110.0,-130.0,-33.0,-111.0,-69.0,-112.0,-86.0,-86.0,-23.0,-158.0,-132.0,-144.0,0.0
16:15:00.138 12/08/2009,-156.0,-130.0,-164.0,-188.0,-247.0,-342.0,-465.0,-203.0,-146.0,-155.0,-164.0,-149.0,-187.0,-205.0,-88.0,-125.0,-124.0,-180.0,-116.0,-131.0,-165.0,-394.0,-381.0,-329.0,-294.0,-253.0,-264.0,-252.0,-252.0,-217.0,-277.0,-190.0,-200.0,-195.0,-219.0,-252.0,-333.0,-79.0,3.0,-80.0,154.0,-167.0,-142.0,21.0,-40.0,-27.0,-33.0,-7.0,-71.0,-29.0,-18.0,-18.0,-64.0,-61.0,87.0,-45.0,5.0,-27.0,-11.0,-52.0,54.0,-82.0,-61.0,-78.0,0.0
16:15:00.144 12/08/2009,-6.0,14.0,-22.0,-35.0,-42.0,-45.0,-11.0,10.0,3.0,-12.0,-11.0,40.0,58.0,68.0,48.0,2.0,14.0,-39.0,49.0,70.0,67.0,-353.0,-254.0,-196.0,-248.0,-178.0,-164.0,-170.0,-208.0,-140.0,-209.0,-97.0,-116.0,-81.0,-45.0,-1.0,61.0,-55.0,-3.0,-20.0,-32.0,92.0,-67.0,68.0,15.0,13.0,-59.0,-1.0,-49.0,-11.0,13.0,16.0,-11.0,-31.0,129.0,-16.0,13.0,-20.0,-11.0,-36.0,52.0,-97.0,-94.0,-136.0,0.0
16:15:00.150 12/08/2009,-39.0,-9.0,-39.0,-51.0,-69.0,-90.0,-105.0,-98.0,-41.0,-44.0,-37.0,9.0,-14.0,-40.0,18.0,-26.0,-29.0,-84.0,-5.0,-25.0,-60.0,-469.0,-421.0,-356.0,-476.0,-294.0,-223.0,-253.0,-356.0,-327.0,-130.0,-145.0,-175.0,-150.0,-139.0,-130.0,-181.0,-266.0,-91.0,-13.0,-3.0,-74.0,-211.0,52.0,31.0,-57.0,-20.0,-2.0,-99.0,-78.0,-66.0,-64.0,-108.0,-101.0,36.0,-50.0,-38.0,-93.0,-49.0,-16.0,-75.0,-199.0,-159.0,-248.0,0.0
16:15:00.156 12/08/2009,-99.0,-93.0,-116.0,-119.0,-137.0,-159.0,-136.0,-150.0,-105.0,-106.0,-91.0,-47.0,-54.0,-108.0,-74.0,-97.0,-83.0,-113.0,-29.0,-29.0,-51.0,-442.0,-336.0,-269.0,-172.0,-192.0,-177.0,-139.0,-158.0,-148.0,-173.0,-104.0,-120.0,-87.0,-60.0,-45.0,49.0,-76.0,-63.0,145.0,51.0,-117.0,-91.0,6.0,-60.0,7.0,-67.0,-7.0,-46.0,4.0,32.0,36.0,-3.0,-12.0,165.0,-17.0,29.0,12.0,23.0,-34.0,89.0,-63.0,-39.0,-77.0,0.0
16:15:00.163 12/08/2009,88.0,63.0,35.0,30.0,39.0,48.0,158.0,37.0,54.0,31.0,35.0,91.0,88.0,46.0,86.0,44.0,32.0,-18.0,65.0,51.0,4.0,-248.0,-282.0,-293.0,-34.0,-226.0,-142.0,-110.0,-176.0,-80.0,-72.0,-78.0,-105.0,-70.0,-45.0,-17.0,-139.0,-159.0,-17.0,-97.0,4.0,-6.0,-73.0,44.0,-13.0,-115.0,-24.0,-22.0,-91.0,-52.0,-37.0,-34.0,-87.0,-109.0,-51.0,-128.0,-50.0,-74.0,-34.0,-29.0,-2.0,-130.0,-91.0,-122.0,0.0
16:15:00.169 12/08/2009,-80.0,-85.0,-115.0,-131.0,-145.0,-171.0,-237.0,-81.0,-100.0,-123.0,-120.0,-68.0,-88.0,-138.0,-50.0,-103.0,-114.0,-155.0,-76.0,-82.0,-104.0,-407.0,-411.0,-436.0,-348.0,-242.0,-209.0,-167.0,-459.0,-205.0,-202.0,-162.0,-158.0,-140.0,-148.0,-149.0,-203.0,-185.0,-103.0,-112.0,94.0,-24.0,-158.0,-2.0,-90.0,-63.0,-166.0,-81.0,-136.0,-90.0,-65.0,-61.0,-98.0,-97.0,40.0,-110.0,-69.0,-96.0,-64.0,-101.0,-23.0,-145.0,-105.0,-120.0,0.0
16:15:00.175 12/08/2009,-80.0,-74.0,-88.0,-90.0,-87.0,-83.0,-8.0,-180.0,-114.0,-105.0,-80.0,-31.0,-22.0,-63.0,-79.0,-94.0,-79.0,-117.0,-34.0,-37.0,-71.0,-399.0,-313.0,-298.0,-157.0,-259.0,-167.0,-110.0,-253.0,-187.0,-139.0,-143.0,-135.0,-96.0,-73.0,-74.0,37.0,-152.0,-41.0,100.0,-76.0,-13.0,-112.0,30.0,-24.0,-75.0,-58.0,-7.0,-72.0,-24.0,-7.0,-2.0,-52.0,-74.0,44.0,-30.0,-10.0,-30.0,-3.0,-29.0,84.0,-64.0,-40.0,-31.0,0.0
16:15:00.181 12/08/2009,-65.0,-33.0,-46.0,-64.0,-80.0,-121.0,-194.0,-99.0,-50.0,-53.0,-35.0,-2.0,-15.0,-56.0,-14.0,-42.0,-41.0,-72.0,-4.0,3.0,-11.0,-267.0,-246.0,-223.0,-120.0,-227.0,-181.0,-150.0,-236.0,-114.0,-133.0,-142.0,-158.0,-128.0,-129.0,-126.0,-29.0,-123.0,29.0,60.0,62.0,-30.0,-171.0,37.0,-21.0,-56.0,-76.0,-51.0,-115.0,-77.0,-56.0,-50.0,-88.0,-77.0,98.0,-124.0,-78.0,-103.0,-69.0,-76.0,-46.0,-190.0,-160.0,-218.0,0.0
16:15:00.188 12/08/2009,-45.0,-45.0,-89.0,-118.0,-132.0,-145.0,-33.0,-102.0,-72.0,-89.0,-78.0,-39.0,-39.0,-4.0,-33.0,-77.0,-83.0,-117.0,-45.0,-31.0,-31.0,-422.0,-325.0,-268.0,-260.0,-272.0,-168.0,-76.0,-223.0,-138.0,-153.0,-113.0,-117.0,-97.0,-122.0,-127.0,-78.0,-242.0,0.0,-67.0,50.0,-222.0,-34.0,17.0,-24.0,55.0,-18.0,35.0,-35.0,0.0,18.0,30.0,-3.0,-10.0,160.0,-12.0,23.0,-4.0,29.0,-8.0,59.0,-66.0,-30.0,-65.0,0.0
16:15:00.194 12/08/2009,34.0,68.0,49.0,48.0,62.0,135.0,400.0,-7.0,43.0,39.0,56.0,108.0,140.0,118.0,86.0,35.0,33.0,-10.0,56.0,69.0,57.0,-335.0,-251.0,-178.0,-226.0,-199.0,-136.0,-89.0,-185.0,-208.0,-90.0,-53.0,-88.0,-70.0,-79.0,-49.0,31.0,-129.0,-45.0,-123.0,-37.0,-134.0,-50.0,130.0,41.0,-148.0,-22.0,-16.0,-85.0,-58.0,-58.0,-72.0,-124.0,-164.0,-62.0,-89.0,-55.0,-101.0,-102.0,-142.0,2.0,-156.0,-149.0,-169.0,0.0
16:15:00.200 12/08/2009,-23.0,-26.0,-77.0,-105.0,-138.0,-199.0,-316.0,-106.0,-63.0,-84.0,-80.0,-58.0,-80.0,-95.0,-30.0,-83.0,-85.0,-144.0,-77.0,-80.0,-117.0,-373.0,-322.0,-387.0,-379.0,-210.0,-234.0,-230.0,-400.0,-338.0,-278.0,-121.0,-172.0,-128.0,-80.0,-13.0,-60.0,-135.0,-62.0,26.0,-87.0,43.0,-154.0,-12.0,-119.0,-146.0,-171.0,-77.0,-119.0,-89.0,-71.0,-67.0,-114.0,-129.0,-1.0,-113.0,-69.0,-102.0,-54.0,-60.0,-28.0,-156.0,-118.0,-139.0,0.0
16:15:00.206 12/08/2009,-27.0,-33.0,-67.0,-77.0,-88.0,-107.0,-107.0,-58.0,-49.0,-71.0,-67.0,-32.0,-45.0,-118.0,-11.0,-52.0,-60.0,-118.0,-48.0,-40.0,-50.0,-355.0,-361.0,-345.0,-51.0,-314.0,-166.0,-108.0,-289.0,-106.0,-78.0,-102.0,-109.0,-88.0,-82.0,-103.0,-140.0,44.0,-52.0,45.0,62.0,-11.0,-86.0,147.0,8.0,83.0,-5.0,6.0,-57.0,-16.0,4.0,7.0,-34.0,-24.0,209.0,-6.0,21.0,-28.0,8.0,-5.0,33.0,-107.0,-86.0,-126.0,0.0
16:15:00.213 12/08/2009,6.0,25.0,-3.0,-22.0,-59.0,-87.0,-110.0,-59.0,11.0,-3.0,-1.0,26.0,28.0,-11.0,65.0,27.0,17.0,-45.0,20.0,30.0,11.0,-293.0,-242.0,-300.0,-226.0,-195.0,-178.0,-216.0,-395.0,-220.0,-138.0,-90.0,-119.0,-100.0,-98.0,-68.0,-55.0,-206.0,5.0,14.0,95.0,-35.0,-74.0,-11.0,3.0,-84.0,-45.0,1.0,-62.0,-20.0,-10.0,-21.0,-73.0,-104.0,13.0,-61.0,-4.0,-46.0,-29.0,-59.0,80.0,-79.0,-61.0,-50.0,0.0
16:15:00.219 12/08/2009,-36.0,-23.0,-59.0,-74.0,-102.0,-122.0,-159.0,-96.0,-50.0,-73.0,-62.0,-30.0,-58.0,-128.0,-40.0,-71.0,-69.0,-116.0,-62.0,-65.0,-114.0,-338.0,-307.0,-296.0,-145.0,-180.0,-217.0,-147.0,-344.0,-90.0,-86.0,-108.0,-144.0,-121.0,-104.0,-89.0,-288.0,42.0,-90.0,-24.0,-115.0,-259.0,-119.0,34.0,-94.0,-209.0,-139.0,-54.0,-108.0,-69.0,-59.0,-66.0,-122.0,-154.0,-71.0,-40.0,-24.0,-78.0,-67.0,-92.0,52.0,-114.0,-111.0,-87.0,0.0
16:15:00.225 12/08/2009,-42.0,-20.0,-42.0,-61.0,-88.0,-103.0,-60.0,-106.0,-47.0,-64.0,-42.0,-22.0,-10.0,-7.0,-23.0,-49.0,-48.0,-90.0,-29.0,-22.0,-62.0,-323.0,-297.0,-293.0,-211.0,-239.0,-166.0,-160.0,-320.0,-145.0,-61.0,-67.0,-95.0,-86.0,-95.0,-87.0,21.0,-152.0,-59.0,61.0,-33.0,122.0,8.0,102.0,-26.0,39.0,-92.0,-19.0,-62.0,-22.0,2.0,19.0,-27.0,-8.0,149.0,4.0,14.0,-25.0,33.0,50.0,49.0,-88.0,-64.0,-93.0,0.0
16:15:00.231 12/08/2009,2.0,3.0,-28.0,-48.0,-67.0,-78.0,32.0,-81.0,-44.0,-66.0,-55.0,-30.0,-30.0,-73.0,-35.0,-74.0,-80.0,-128.0,-70.0,-64.0,-97.0,-457.0,-361.0,-390.0,-251.0,-228.0,-182.0,-174.0,-342.0,-282.0,-380.0,-119.0,-155.0,-135.0,-144.0,-157.0,-227.0,-130.0,-112.0,-64.0,88.0,-248.0,-201.0,-45.0,-142.0,-126.0,-95.0,-59.0,-122.0,-108.0,-100.0,-100.0,-153.0,-146.0,-4.0,-62.0,-48.0,-91.0,-71.0,-92.0,27.0,-130.0,-116.0,-125.0,0.0
16:15:00.238 12/08/2009,-70.0,-73.0,-103.0,-133.0,-175.0,-205.0,-229.0,-76.0,-81.0,-116.0,-114.0,-88.0,-117.0,-186.0,-26.0,-84.0,-96.0,-155.0,-97.0,-100.0,-134.0,-378.0,-338.0,-322.0,-267.0,-321.0,-259.0,-192.0,-347.0,-244.0,-211.0,-193.0,-218.0,-183.0,-171.0,-161.0,71.0,-99.0,-107.0,-68.0,-52.0,-4.0,-173.0,30.0,65.0,-72.0,-52.0,-41.0,-96.0,-70.0,-48.0,-37.0,-87.0,-77.0,80.0,-70.0,-16.0,-29.0,18.0,16.0,83.0,-48.0,-11.0,-22.0,0.0
16:15:00.244 12/08/2009,-83.0,-75.0,-93.0,-108.0,-126.0,-136.0,-129.0,-135.0,-66.0,-87.0,-77.0,-54.0,-51.0,-120.0,-38.0,-54.0,-52.0,-105.0,-32.0,-18.0,-35.0,-267.0,-289.0,-275.0,-153.0,-231.0,-232.0,-134.0,-364.0,-209.0,-96.0,-153.0,-182.0,-157.0,-150.0,-121.0,-68.0,-348.0,-64.0,-78.0,-83.0,-30.0,-66.0,39.0,-90.0,10.0,-53.0,-36.0,-87.0,-54.0,-36.0,-40.0,-79.0,-86.0,55.0,-54.0,-13.0,-56.0,-51.0,-86.0,43.0,-119.0,-109.0,-133.0,0.0
16:15:00.250 12/08/2009,-133.0,-105.0,-131.0,-140.0,-133.0,-88.0,98.0,-157.0,-112.0,-135.0,-123.0,-70.0,-68.0,-112.0,-71.0,-102.0,-109.0,-162.0,-88.0,-95.0,-119.0,-482.0,-441.0,-445.0,-352.0,-353.0,-314.0,-327.0,-533.0,-225.0,-97.0,-191.0,-245.0,-228.0,-220.0,-209.0,-156.0,-168.0,-60.0,-6.0,153.0,-95.0,-234.0,-37.0,-81.0,-147.0,-61.0,-48.0,-100.0,-76.0,-61.0,-60.0,-117.0,-115.0,-1.0,-65.0,-25.0,-57.0,-32.0,-47.0,53.0,-103.0,-77.0,-102.0,0.0
16:15:00.256 12/08/2009,-54.0,-56.0,-89.0,-102.0,-134.0,-155.0,-96.0,-72.0,-51.0,-81.0,-68.0,-31.0,-31.0,-24.0,-20.0,-43.0,-42.0,-83.0,-15.0,-11.0,-33.0,-334.0,-323.0,-364.0,-193.0,-254.0,-176.0,-98.0,-244.0,-222.0,-196.0,-120.0,-130.0,-82.0,-30.0,39.0,137.0,157.0,-97.0,118.0,-47.0,-68.0,-101.0,77.0,13.0,-67.0,14.0,25.0,-31.0,10.0,35.0,43.0,0.0,-11.0,131.0,24.0,45.0,10.0,49.0,27.0,83.0,-50.0,-14.0,-68.0,0.0
16:15:00.263 12/08/2009,-58.0,-11.0,-20.0,-16.0,26.0,98.0,433.0,-92.0,-30.0,-24.0,8.0,81.0,127.0,172.0,14.0,-10.0,13.0,-25.0,58.0,86.0,81.0,-440.0,-322.0,-410.0,-308.0,-305.0,-225.0,-214.0,-503.0,-228.0,-340.0,-108.0,-154.0,-140.0,-154.0,-119.0,-211.0,-385.0,-78.0,-81.0,-64.0,-24.0,-8.0,12.0,13.0,-1.0,-34.0,-16.0,-68.0,-41.0,-20.0,-18.0,-67.0,-72.0,45.0,-52.0,-10.0,-49.0,-16.0,-25.0,45.0,-96.0,-74.0,-64.0,0.0
16:15:00.269 12/08/2009,-95.0,-89.0,-123.0,-149.0,-203.0,-287.0,-448.0,-163.0,-128.0,-127.0,-116.0,-102.0,-159.0,-247.0,-71.0,-107.0,-99.0,-156.0,-90.0,-115.0,-147.0,-482.0,-370.0,-347.0,-280.0,-265.0,-251.0,-254.0,-361.0,-200.0,-133.0,-180.0,-198.0,-169.0,-157.0,-152.0,-301.0,-9.0,-90.0,14.0,-98.0,-73.0,-159.0,31.0,-48.0,-90.0,-105.0,-61.0,-110.0,-82.0,-56.0,-43.0,-95.0,-83.0,59.0,-80.0,-37.0,-58.0,-8.0,15.0,25.0,-119.0,-82.0,-166.0,0.0
16:15:00.275 12/08/2009,-67.0,-56.0,-89.0,-100.0,-112.0,-135.0,-102.0,-114.0,-96.0,-99.0,-77.0,-47.0,-57.0,-118.0,-35.0,-69.0,-66.0,-114.0,-38.0,-48.0,-74.0,-323.0,-286.0,-353.0,-230.0,-274.0,-230.0,-116.0,-480.0,-257.0,-235.0,-174.0,-205.0,-166.0,-179.0,-182.0,-58.0,-227.0,-58.0,-21.0,43.0,-126.0,-112.0,12.0,-34.0,-127.0,-91.0,-45.0,-87.0,-55.0,-39.0,-39.0,-88.0,-118.0,21.0,-39.0,-4.0,-43.0,-38.0,-96.0,63.0,-81.0,-65.0,-73.0,0.0
16:15:00.281 12/08/2009,-83.0,-55.0,-97.0,-110.0,-129.0,-164.0,-186.0,-96.0,-81.0,-89.0,-70.0,-32.0,-35.0,-50.0,-15.0,-51.0,-48.0,-97.0,-11.0,-5.0,-20.0,-277.0,-289.0,-269.0,-121.0,-257.0,-165.0,-143.0,-295.0,-128.0,-160.0,-100.0,-142.0,-101.0,-88.0,-63.0,110.0,-346.0,-24.0,-8.0,36.0,-111.0,-127.0,13.0,31.0,-18.0,51.0,51.0,-53.0,-28.0,-13.0,3.0,-38.0,-38.0,121.0,-20.0,2.0,-35.0,21.0,59.0,-4.0,-127.0,-91.0,-162.0,0.0
16:15:00.288 12/08/2009,-1.0,-27.0,-87.0,-117.0,-134.0,-159.0,-131.0,-97.0,-80.0,-98.0,-87.0,-50.0,-82.0,-142.0,-31.0,-79.0,-77.0,-127.0,-54.0,-63.0,-96.0,-450.0,-369.0,-327.0,-270.0,-260.0,-308.0,-215.0,-376.0,-328.0,-199.0,-184.0,-232.0,-235.0,-263.0,-271.0,-426.0,-128.0,-137.0,-115.0,-3.0,53.0,-126.0,7.0,-66.0,-21.0,-60.0,-44.0,-94.0,-55.0,-39.0,-22.0,-68.0,-97.0,54.0,-73.0,-9.0,-32.0,-24.0,-124.0,73.0,-67.0,-52.0,-68.0,0.0
16:15:00.294 12/08/2009,-16.0,1.0,-39.0,-60.0,-72.0,-80.0,-115.0,-31.0,-15.0,-25.0,-17.0,24.0,28.0,17.0,27.0,12.0,9.0,-39.0,45.0,43.0,43.0,-218.0,-261.0,-311.0,-90.0,-231.0,-169.0,-144.0,-367.0,-162.0,-136.0,-97.0,-121.0,-93.0,-89.0,-77.0,-103.0,-173.0,-1.0,21.0,162.0,-117.0,-127.0,39.0,-35.0,-30.0,-54.0,19.0,-45.0,-15.0,-14.0,3.0,-46.0,-75.0,58.0,4.0,31.0,-11.0,-8.0,-46.0,99.0,-50.0,-41.0,-16.0,0.0
16:15:00.300 12/08/2009,39.0,-20.0,-67.0,-79.0,-110.0,-146.0,-167.0,-32.0,-52.0,-72.0,-67.0,-35.0,-67.0,-125.0,-8.0,-49.0,-58.0,-112.0,-46.0,-63.0,-96.0,-346.0,-342.0,-349.0,-279.0,-289.0,-215.0,-194.0,-415.0,-184.0,-139.0,-146.0,-169.0,-139.0,-127.0,-116.0,-29.0,-214.0,-31.0,-137.0,251.0,-70.0,-253.0,-5.0,-126.0,-130.0,-112.0,-21.0,-90.0,-65.0,-50.0,-35.0,-88.0,-97.0,10.0,-68.0,-21.0,-43.0,-41.0,-86.0,44.0,-105.0,-95.0,-128.0,0.0
16:15:00.306 12/08/2009,-49.0,-17.0,-41.0,-40.0,-11.0,53.0,267.0,-62.0,-62.0,-52.0,-22.0,34.0,63.0,106.0,-20.0,-43.0,-33.0,-74.0,6.0,4.0,-12.0,-373.0,-272.0,-248.0,-320.0,-243.0,-178.0,-213.0,-343.0,-131.0,-126.0,-54.0,-78.0,-71.0,-52.0,-15.0,-4.0,62.0,-43.0,148.0,-60.0,-195.0,-29.0,29.0,55.0,-112.0,15.0,35.0,-33.0,-3.0,8.0,16.0,-43.0,-58.0,73.0,37.0,60.0,13.0,16.0,-3.0,133.0,-25.0,-20.0,-8.0,0.0
16:15:00.313 12/08/2009,-34.0,9.0,-17.0,-37.0,-80.0,-156.0,-274.0,-66.0,-27.0,-30.0,-15.0,-10.0,-59.0,-123.0,27.0,-7.0,-14.0,-70.0,-15.0,-32.0,-47.0,-249.0,-249.0,-304.0,-77.0,-231.0,-198.0,-64.0,-543.0,-209.0,-116.0,-106.0,-147.0,-113.0,-106.0,-98.0,-68.0,-118.0,-80.0,-52.0,6.0,-68.0,-73.0,67.0,112.0,-39.0,5.0,12.0,-69.0,-46.0,-41.0,-26.0,-77.0,-77.0,41.0,-35.0,2.0,-48.0,-9.0,-2.0,26.0,-124.0,-88.0,-151.0,0.0
16:15:00.319 12/08/2009,-36.0,-41.0,-69.0,-79.0,-91.0,-106.0,-135.0,-161.0,-101.0,-92.0,-60.0,-35.0,-63.0,-121.0,-91.0,-107.0,-97.0,-138.0,-67.0,-74.0,-93.0,-422.0,-377.0,-372.0,-254.0,-320.0,-218.0,-160.0,-426.0,-215.0,-266.0,-142.0,-168.0,-158.0,-165.0,-161.0,-211.0,-197.0,-105.0,-177.0,-174.0,-124.0,-59.0,-71.0,-112.0,-105.0,-122.0,-70.0,-135.0,-98.0,-77.0,-62.0,-103.0,-99.0,46.0,-16.0,-18.0,-70.0,-53.0,-121.0,6.0,-121.0,-92.0,-83.0,0.0
16:15:00.325 12/08/2009,-35.0,-13.0,-39.0,-37.0,-33.0,-34.0,-32.0,-133.0,-70.0,-48.0,-11.0,42.0,64.0,149.0,-36.0,-43.0,-33.0,-55.0,29.0,51.0,68.0,-297.0,-299.0,-279.0,-184.0,-135.0,-116.0,-121.0,-205.0,-214.0,-103.0,-38.0,-79.0,-30.0,13.0,54.0,212.0,-99.0,-78.0,-80.0,3.0,-114.0,-74.0,109.0,-83.0,-99.0,-169.0,-70.0,-97.0,-44.0,-22.0,-1.0,-39.0,-54.0,124.0,-79.0,-17.0,-39.0,-18.0,-55.0,62.0,-108.0,-89.0,-112.0,0.0
16:15:00.331 12/08/2009,-24.0,-20.0,-42.0,-34.0,-13.0,-4.0,101.0,-108.0,-90.0,-68.0,-31.0,13.0,11.0,-55.0,-49.0,-69.0,-62.0,-98.0,-25.0,-16.0,-20.0,-486.0,-350.0,-407.0,-393.0,-187.0,-210.0,-221.0,-360.0,-258.0,-133.0,-146.0,-182.0,-165.0,-183.0,-181.0,-250.0,-149.0,-65.0,72.0,53.0,-61.0,-216.0,21.0,-11.0,-26.0,3.0,17.0,-76.0,-60.0,-70.0,-59.0,-110.0,-103.0,35.0,36.0,20.0,-74.0,-70.0,-97.0,-44.0,-165.0,-137.0,-157.0,0.0
16:15:00.338 12/08/2009,-44.0,-79.0,-119.0,-136.0,-181.0,-244.0,-366.0,-114.0,-113.0,-122.0,-115.0,-89.0,-123.0,-177.0,-35.0,-87.0,-101.0,-158.0,-96.0,-102.0,-139.0,-381.0,-380.0,-373.0,-237.0,-318.0,-289.0,-231.0,-400.0,-316.0,-208.0,-201.0,-229.0,-213.0,-212.0,-222.0,-133.0,-156.0,-93.0,-137.0,-72.0,-59.0,-42.0,23.0,-31.0,-132.0,-122.0,-78.0,-128.0,-83.0,-80.0,-59.0,-130.0,-130.0,6.0,-135.0,-50.0,-55.0,-58.0,-84.0,77.0,-96.0,-77.0,-63.0,0.0
16:15:00.344 12/08/2009,7.0,-35.0,-74.0,-91.0,-116.0,-155.0,-210.0,-9.0,-29.0,-54.0,-41.0,-19.0,-33.0,-103.0,54.0,-2.0,-11.0,-67.0,4.0,4.0,-35.0,-231.0,-270.0,-282.0,1.0,-214.0,-155.0,-82.0,-303.0,-143.0,-100.0,-69.0,-119.0,-97.0,-98.0,-65.0,-37.0,-20.0,23.0,-5.0,161.0,-101.0,-113.0,10.0,-15.0,-55.0,-30.0,16.0,-64.0,-31.0,-28.0,-24.0,-76.0,-82.0,53.0,-23.0,5.0,-51.0,-60.0,-91.0,51.0,-122.0,-120.0,-127.0,0.0
16:15:00.350 12/08/2009,-93.0,-101.0,-137.0,-135.0,-132.0,-125.0,-110.0,-176.0,-139.0,-145.0,-110.0,-68.0,-63.0,-73.0,-83.0,-112.0,-114.0,-157.0,-77.0,-75.0,-84.0,-392.0,-326.0,-396.0,-323.0,-355.0,-272.0,-181.0,-431.0,-215.0,-154.0,-208.0,-231.0,-203.0,-193.0,-182.0,-134.0,-188.0,-149.0,-54.0,55.0,-45.0,-190.0,-16.0,-62.0,-97.0,-46.0,-33.0,-121.0,-91.0,-84.0,-71.0,-127.0,-131.0,-23.0,-87.0,-38.0,-83.0,-81.0,-111.0,25.0,-142.0,-120.0,-117.0,0.0
16:15:00.356 12/08/2009,-63.0,-87.0,-124.0,-124.0,-127.0,-122.0,-81.0,-93.0,-106.0,-112.0,-90.0,-48.0,-49.0,-111.0,-27.0,-65.0,-72.0,-113.0,-34.0,-32.0,-63.0,-390.0,-308.0,-306.0,-257.0,-280.0,-200.0,-237.0,-488.0,-202.0,-240.0,-130.0,-145.0,-112.0,-83.0,-11.0,60.0,-327.0,-39.0,18.0,17.0,-96.0,-93.0,49.0,51.0,-44.0,27.0,51.0,-38.0,-2.0,2.0,11.0,-36.0,-52.0,83.0,58.0,56.0,3.0,1.0,-10.0,97.0,-58.0,-44.0,-23.0,0.0
16:15:00.363 12/08/2009,-106.0,-69.0,-83.0,-76.0,-76.0,-90.0,-115.0,-91.0,-81.0,-87.0,-64.0,-34.0,-45.0,-68.0,-3.0,-54.0,-64.0,-109.0,-44.0,-45.0,-86.0,-377.0,-295.0,-240.0,-41.0,-272.0,-219.0,-154.0,-390.0,-235.0,-187.0,-164.0,-206.0,-196.0,-213.0,-223.0,-356.0,15.0,-55.0,-55.0,6.0,-113.0,-182.0,10.0,-114.0,-61.0,-124.0,-84.0,-149.0,-99.0,-93.0,-88.0,-127.0,-136.0,20.0,-169.0,-83.0,-105.0,-100.0,-132.0,-28.0,-179.0,-163.0,-192.0,0.0
16:15:00.369 12/08/2009,-89.0,-96.0,-130.0,-132.0,-135.0,-124.0,-73.0,-69.0,-107.0,-122.0,-96.0,-42.0,-38.0,-61.0,-34.0,-81.0,-93.0,-129.0,-58.0,-44.0,-69.0,-348.0,-319.0,-308.0,-437.0,-307.0,-222.0,-258.0,-357.0,-233.0,-172.0,-124.0,-164.0,-135.0,-82.0,-24.0,-43.0,-148.0,-97.0,-59.0,-30.0,-73.0,-61.0,-35.0,-40.0,-119.0,-82.0,-42.0,-115.0,-77.0,-74.0,-59.0,-109.0,-139.0,-60.0,-66.0,-52.0,-81.0,-81.0,-87.0,-7.0,-162.0,-127.0,-175.0,0.0
16:15:00.375 12/08/2009,-82.0,-112.0,-135.0,-138.0,-132.0,-132.0,-140.0,-168.0,-151.0,-142.0,-122.0,-80.0,-83.0,-115.0,-111.0,-130.0,-125.0,-155.0,-78.0,-62.0,-89.0,-390.0,-306.0,-358.0,-218.0,-243.0,-247.0,-240.0,-405.0,-190.0,-284.0,-218.0,-221.0,-192.0,-192.0,-191.0,-311.0,-126.0,-84.0,27.0,-28.0,-61.0,-62.0,14.0,-80.0,-94.0,-122.0,-90.0,-134.0,-76.0,-61.0,-23.0,-61.0,-53.0,110.0,-110.0,-50.0,-54.0,-22.0,-3.0,25.0,-117.0,-92.0,-98.0,0.0
16:15:00.381 12/08/2009,-135.0,-125.0,-134.0,-140.0,-140.0,-167.0,-230.0,-186.0,-140.0,-134.0,-101.0,-43.0,-33.0,22.0,-78.0,-112.0,-101.0,-126.0,-45.0,-6.0,8.0,-348.0,-323.0,-306.0,-327.0,-327.0,-239.0,-117.0,-336.0,-362.0,-299.0,-243.0,-254.0,-204.0,-192.0,-172.0,5.0,-93.0,-82.0,-106.0,-41.0,-8.0,-201.0,-51.0,-82.0,-23.0,-94.0,-100.0,-174.0,-127.0,-120.0,-101.0,-133.0,-125.0,45.0,-154.0,-111.0,-134.0,-113.0,-129.0,-40.0,-190.0,-164.0,-170.0,0.0
16:15:00.388 12/08/2009,-106.0,-167.0,-214.0,-225.0,-234.0,-268.0,-268.0,-150.0,-169.0,-197.0,-193.0,-144.0,-165.0,-192.0,-91.0,-163.0,-167.0,-220.0,-154.0,-144.0,-172.0,-338.0,-335.0,-416.0,-149.0,-339.0,-327.0,-215.0,-496.0,-105.0,-108.0,-227.0,-287.0,-252.0,-236.0,-227.0,-71.0,-375.0,-4.0,-80.0,119.0,-191.0,-98.0,61.0,-39.0,-166.0,-103.0,-76.0,-139.0,-92.0,-84.0,-60.0,-114.0,-131.0,4.0,-78.0,-39.0,-59.0,-50.0,-63.0,63.0,-92.0,-68.0,-65.0,0.0
16:15:00.394 12/08/2009,-64.0,-81.0,-118.0,-118.0,-88.0,-60.0,120.0,-78.0,-87.0,-102.0,-89.0,-30.0,-11.0,-76.0,-42.0,-74.0,-74.0,-111.0,-41.0,-31.0,-54.0,-389.0,-295.0,-262.0,-211.0,-266.0,-259.0,-308.0,-399.0,-266.0,-142.0,-179.0,-213.0,-200.0,-194.0,-147.0,-276.0,-178.0,4.0,-127.0,76.0,-196.0,-197.0,48.0,-86.0,-88.0,-62.0,-63.0,-143.0,-107.0,-103.0,-90.0,-129.0,-130.0,61.0,-95.0,-58.0,-95.0,-72.0,-67.0,20.0,-148.0,-130.0,-128.0,0.0
16:15:00.400 12/08/2009,-44.0,-92.0,-157.0,-176.0,-219.0,-295.0,-438.0,-138.0,-126.0,-148.0,-156.0,-111.0,-164.0,-197.0,-89.0,-131.0,-130.0,-177.0,-108.0,-106.0,-109.0,-424.0,-301.0,-297.0,-218.0,-271.0,-289.0,-162.0,-446.0,-201.0,-64.0,-155.0,-234.0,-232.0,-237.0,-246.0,-133.0,-144.0,-37.0,-102.0,-119.0,-36.0,-161.0,-15.0,-102.0,-107.0,-139.0,-86.0,-168.0,-128.0,-111.0,-90.0,-142.0,-138.0,45.0,-74.0,-58.0,-90.0,-85.0,-101.0,40.0,-126.0,-112.0,-86.0,0.0
16:15:00.406 12/08/2009,-120.0,-110.0,-142.0,-144.0,-149.0,-158.0,-87.0,-160.0,-126.0,-129.0,-115.0,-61.0,-70.0,-79.0,-68.0,-99.0,-92.0,-131.0,-68.0,-62.0,-69.0,-286.0,-301.0,-315.0,-216.0,-316.0,-206.0,-149.0,-378.0,-225.0,-200.0,-140.0,-178.0,-160.0,-164.0,-159.0,68.0,-142.0,-89.0,5.0,-4.0,-266.0,-94.0,6.0,-97.0,-71.0,-111.0,-65.0,-121.0,-80.0,-58.0,-59.0,-101.0,-125.0,48.0,-52.0,-44.0,-68.0,-72.0,-76.0,25.0,-127.0,-112.0,-74.0,0.0
16:15:00.413 12/08/2009,-78.0,-64.0,-103.0,-117.0,-137.0,-171.0,-210.0,-113.0,-93.0,-103.0,-106.0,-53.0,-69.0,-90.0,-89.0,-96.0,-80.0,-127.0,-51.0,-47.0,-56.0,-327.0,-274.0,-223.0,-246.0,-294.0,-206.0,-99.0,-310.0,-150.0,-148.0,-128.0,-161.0,-155.0,-145.0,-131.0,-64.0,-56.0,-35.0,-3.0,-83.0,37.0,-237.0,2.0,-128.0,-60.0,-194.0,-107.0,-152.0,-96.0,-73.0,-58.0,-103.0,-108.0,83.0,-108.0,-76.0,-78.0,-76.0,-108.0,-13.0,-151.0,-120.0,-129.0,0.0
16:15:00.419 12/08/2009,-81.0,-67.0,-113.0,-122.0,-121.0,-143.0,-143.0,-182.0,-118.0,-125.0,-109.0,-36.0,-59.0,-98.0,-125.0,-124.0,-96.0,-134.0,-54.0,-49.0,-52.0,-320.0,-256.0,-257.0,-305.0,-245.0,-233.0,-180.0,-347.0,-269.0,-193.0,-164.0,-178.0,-153.0,-128.0,-96.0,-54.0,-175.0,-123.0,-132.0,-161.0,-156.0,-65.0,-40.0,-29.0,-151.0,-62.0,-35.0,-102.0,-59.0,-48.0,-48.0,-105.0,-157.0,-99.0,-41.0,-29.0,-54.0,-67.0,-91.0,19.0,-134.0,-115.0,-126.0,0.0
16:15:00.425 12/08/2009,-38.0,-13.0,-44.0,-41.0,-25.0,-17.0,83.0,-86.0,-33.0,-39.0,-36.0,41.0,47.0,4.0,-4.0,-18.0,-3.0,-49.0,25.0,15.0,-43.0,-287.0,-233.0,-223.0,-223.0,-165.0,-103.0,-112.0,-328.0,-128.0,-122.0,-30.0,-56.0,-23.0,17.0,92.0,-45.0,-140.0,82.0,153.0,181.0,-30.0,-76.0,93.0,-29.0,-90.0,-2.0,39.0,-17.0,20.0,30.0,31.0,-30.0,-79.0,29.0,52.0,49.0,1.0,-17.0,-36.0,46.0,-95.0,-68.0,-77.0,0.0
16:15:00.431 12/08/2009,-23.0,19.0,-34.0,-40.0,-52.0,-96.0,-160.0,-10.0,-10.0,-40.0,-53.0,6.0,-15.0,-7.0,-7.0,-20.0,-18.0,-80.0,-18.0,-13.0,-43.0,-304.0,-260.0,-331.0,-122.0,-234.0,-152.0,-52.0,-278.0,-152.0,-125.0,-112.0,-129.0,-91.0,-84.0,-56.0,93.0,-231.0,-3.0,29.0,95.0,-21.0,-217.0,11.0,-43.0,-22.0,-74.0,-53.0,-90.0,-51.0,-24.0,3.0,-40.0,-29.0,108.0,-118.0,-45.0,-32.0,-4.0,42.0,29.0,-136.0,-116.0,-145.0,0.0
16:15:00.438 12/08/2009,-70.0,-22.0,-42.0,-30.0,5.0,15.0,29.0,-112.0,-45.0,-52.0,-42.0,43.0,41.0,36.0,-53.0,-48.0,-33.0,-83.0,-1.0,5.0,-14.0,-248.0,-228.0,-229.0,-116.0,-205.0,-159.0,-190.0,-341.0,-156.0,-26.0,-102.0,-130.0,-90.0,-68.0,-61.0,-219.0,-56.0,43.0,-159.0,223.0,-176.0,-169.0,56.0,-111.0,-87.0,-142.0,-70.0,-96.0,-60.0,-52.0,-46.0,-102.0,-122.0,74.0,-84.0,-47.0,-71.0,-74.0,-82.0,13.0,-150.0,-140.0,-145.0,0.0
16:15:00.444 12/08/2009,50.0,35.0,-32.0,-53.0,-107.0,-185.0,-314.0,23.0,14.0,-31.0,-49.0,-27.0,-60.0,-174.0,31.0,18.0,6.0,-66.0,-8.0,-23.0,-76.0,-248.0,-238.0,-270.0,-58.0,-74.0,-107.0,-172.0,-353.0,19.0,-118.0,0.0,-56.0,-56.0,-77.0,-71.0,-183.0,-220.0,141.0,83.0,35.0,-4.0,33.0,5.0,37.0,-59.0,-23.0,5.0,-39.0,-8.0,2.0,11.0,-54.0,-100.0,-18.0,-41.0,-10.0,-29.0,-30.0,-63.0,54.0,-99.0,-76.0,-90.0,0.0
16:15:00.450 12/08/2009,-43.0,13.0,-33.0,-44.0,-51.0,-57.0,-12.0,-106.0,-45.0,-69.0,-65.0,-3.0,-12.0,-48.0,-40.0,-70.0,-64.0,-130.0,-48.0,-44.0,-61.0,-310.0,-252.0,-212.0,-346.0,-251.0,-221.0,-103.0,-348.0,-297.0,-103.0,-149.0,-177.0,-168.0,-175.0,-168.0,127.0,-281.0,-7.0,-240.0,-160.0,-140.0,-168.0,28.0,-69.0,-69.0,-130.0,-98.0,-148.0,-125.0,-109.0,-90.0,-134.0,-158.0,13.0,-122.0,-97.0,-122.0,-115.0,-173.0,-41.0,-191.0,-173.0,-191.0,0.0
16:15:00.456 12/08/2009,-65.0,-54.0,-90.0,-87.0,-60.0,-36.0,126.0,-167.0,-90.0,-102.0,-82.0,-13.0,17.0,17.0,-80.0,-87.0,-79.0,-124.0,-32.0,-24.0,-56.0,-331.0,-233.0,-260.0,-370.0,-311.0,-198.0,-206.0,-374.0,-313.0,-32.0,-95.0,-138.0,-114.0,-96.0,-64.0,-172.0,-196.0,-29.0,-74.0,-43.0,-217.0,-89.0,153.0,-23.0,-132.0,-132.0,-91.0,-120.0,-84.0,-56.0,-48.0,-102.0,-121.0,22.0,-80.0,-59.0,-67.0,-53.0,-55.0,-6.0,-151.0,-121.0,-152.0,0.0
16:15:00.463 12/08/2009,-61.0,-10.0,-54.0,-64.0,-103.0,-183.0,-372.0,-71.0,-31.0,-68.0,-66.0,-29.0,-58.0,-137.0,-4.0,-35.0,-36.0,-93.0,-20.0,-27.0,-59.0,-236.0,-211.0,-218.0,-54.0,-212.0,-161.0,-98.0,-298.0,-148.0,-137.0,-72.0,-123.0,-105.0,-109.0,-116.0,-231.0,-147.0,40.0,55.0,-2.0,55.0,-145.0,-105.0,-6.0,-22.0,-20.0,-30.0,-92.0,-68.0,-56.0,-49.0,-106.0,-125.0,15.0,-95.0,-56.0,-74.0,-78.0,-121.0,-6.0,-154.0,-136.0,-158.0,0.0
16:15:00.469 12/08/2009,-99.0,-51.0,-98.0,-96.0,-120.0,-144.0,-145.0,-143.0,-94.0,-121.0,-107.0,-49.0,-77.0,-129.0,-72.0,-106.0,-95.0,-146.0,-72.0,-81.0,-115.0,-322.0,-307.0,-325.0,-208.0,-274.0,-214.0,-103.0,-259.0,-238.0,-308.0,-162.0,-179.0,-156.0,-144.0,-138.0,-70.0,-163.0,-37.0,-54.0,-139.0,-94.0,-119.0,25.0,-80.0,-187.0,-90.0,-87.0,-139.0,-98.0,-72.0,-62.0,-127.0,-149.0,-3.0,-79.0,-56.0,-64.0,-83.0,-143.0,13.0,-133.0,-120.0,-115.0,0.0
16:15:00.475 12/08/2009,-45.0,-39.0,-75.0,-69.0,-74.0,-91.0,-96.0,-109.0,-65.0,-80.0,-64.0,-12.0,-13.0,-30.0,-47.0,-63.0,-40.0,-86.0,-18.0,-21.0,-52.0,-360.0,-233.0,-231.0,-224.0,-178.0,-158.0,-131.0,-314.0,-109.0,-99.0,-89.0,-117.0,-83.0,-60.0,-54.0,-221.0,-57.0,89.0,74.0,96.0,-104.0,-77.0,7.0,12.0,-66.0,-72.0,-30.0,-64.0,-23.0,1.0,5.0,-58.0,-84.0,39.0,-22.0,4.0,-1.0,-15.0,-26.0,63.0,-90.0,-60.0,-97.0,0.0
16:15:00.481 12/08/2009,-29.0,12.0,-24.0,-19.0,-17.0,-22.0,14.0,-59.0,-29.0,-38.0,-14.0,44.0,30.0,-46.0,-11.0,-35.0,-17.0,-53.0,12.0,-1.0,-45.0,-195.0,-191.0,-180.0,-96.0,-185.0,-143.0,-51.0,-194.0,-106.0,-66.0,-65.0,-118.0,-73.0,-42.0,3.0,306.0,-47.0,7.0,89.0,131.0,-39.0,-161.0,-40.0,-106.0,-74.0,-101.0,-68.0,-119.0,-77.0,-47.0,-43.0,-102.0,-124.0,-20.0,-134.0,-77.0,-75.0,-65.0,-44.0,-31.0,-180.0,-150.0,-174.0,0.0
16:15:00.488 12/08/2009,-53.0,-20.0,-68.0,-73.0,-78.0,-117.0,-130.0,-32.0,-55.0,-76.0,-64.0,-19.0,-56.0,-93.0,-12.0,-59.0,-52.0,-111.0,-56.0,-61.0,-89.0,-275.0,-267.0,-249.0,-146.0,-198.0,-186.0,-202.0,-340.0,-62.0,-67.0,-111.0,-133.0,-119.0,-130.0,-133.0,-235.0,-217.0,142.0,-114.0,186.0,-135.0,-239.0,55.0,13.0,-126.0,-7.0,-12.0,-86.0,-39.0,-25.0,-2.0,-57.0,-70.0,100.0,20.0,1.0,-27.0,-12.0,-32.0,5.0,-116.0,-83.0,-91.0,0.0
16:15:00.494 12/08/2009,-5.0,33.0,5.0,5.0,1.0,-37.0,-140.0,-22.0,7.0,6.0,23.0,69.0,62.0,43.0,50.0,13.0,33.0,-14.0,64.0,59.0,36.0,-212.0,-82.0,-128.0,-146.0,-146.0,-79.0,-65.0,-130.0,-97.0,14.0,-13.0,-35.0,-6.0,6.0,45.0,23.0,-33.0,92.0,72.0,149.0,-95.0,-113.0,1.0,-5.0,22.0,-127.0,-54.0,-83.0,-18.0,34.0,44.0,-7.0,-20.0,169.0,-134.0,-42.0,-8.0,10.0,-32.0,36.0,-110.0,-78.0,-158.0,0.0
16:15:00.500 12/08/2009,1.0,45.0,7.0,6.0,-16.0,-75.0,-164.0,-61.0,-33.0,-30.0,-6.0,35.0,-15.0,-112.0,-98.0,-84.0,-41.0,-78.0,-8.0,-18.0,-45.0,-244.0,-246.0,-275.0,-280.0,-195.0,-139.0,-157.0,-363.0,-166.0,-56.0,-56.0,-78.0,-68.0,-60.0,-76.0,30.0,-263.0,58.0,-165.0,-14.0,39.0,-87.0,-12.0,-73.0,-51.0,-149.0,-79.0,-129.0,-58.0,-24.0,-9.0,-77.0,-99.0,-6.0,-97.0,-42.0,-31.0,-31.0,-78.0,12.0,-120.0,-97.0,-115.0,0.0
16:15:00.506 12/08/2009,-9.0,51.0,13.0,10.0,-11.0,-48.0,-69.0,-60.0,0.0,-2.0,23.0,59.0,45.0,41.0,7.0,-3.0,18.0,-30.0,45.0,32.0,2.0,-197.0,-147.0,-161.0,-167.0,-184.0,-84.0,-21.0,-165.0,-157.0,-210.0,26.0,-25.0,-17.0,-46.0,-59.0,36.0,-117.0,107.0,-32.0,23.0,-86.0,-76.0,-23.0,-50.0,-77.0,-67.0,-3.0,-54.0,3.0,29.0,25.0,-41.0,-86.0,45.0,-14.0,-2.0,-2.0,-24.0,-72.0,6.0,-121.0,-100.0,-183.0,0.0
16:15:00.513 12/08/2009,4.0,67.0,18.0,16.0,-21.0,-83.0,-168.0,-56.0,-8.0,-12.0,10.0,42.0,-6.0,-128.0,-47.0,-44.0,-3.0,-36.0,25.0,0.0,-30.0,-214.0,-174.0,-277.0,-106.0,-142.0,-100.0,11.0,-349.0,-168.0,-16.0,-69.0,-69.0,-34.0,-34.0,-23.0,-39.0,-126.0,72.0,37.0,44.0,-71.0,-121.0,93.0,-42.0,-111.0,-109.0,-74.0,-99.0,-25.0,8.0,12.0,-53.0,-81.0,55.0,-122.0,-51.0,-32.0,-35.0,-67.0,-3.0,-150.0,-135.0,-181.0,0.0
16:15:00.519 12/08/2009,-42.0,15.0,-1.0,13.0,15.0,-6.0,11.0,-101.0,-39.0,-22.0,8.0,58.0,35.0,22.0,-60.0,-56.0,-15.0,-61.0,2.0,-17.0,-55.0,-215.0,-183.0,-270.0,-106.0,-120.0,-107.0,-114.0,-263.0,-100.0,-57.0,-52.0,-63.0,-48.0,-50.0,-27.0,-145.0,-187.0,108.0,-33.0,-135.0,-201.0,-150.0,1.0,-88.0,-128.0,-156.0,-100.0,-120.0,-56.0,-18.0,-24.0,-84.0,-115.0,48.0,-105.0,-56.0,-42.0,-46.0,-109.0,23.0,-131.0,-111.0,-135.0,0.0
16:15:00.525 12/08/2009,-5.0,42.0,12.0,16.0,0.0,-34.0,-2.0,-32.0,-5.0,8.0,18.0,63.0,50.0,-14.0,31.0,18.0,43.0,-7.0,55.0,48.0,32.0,-208.0,-148.0,-149.0,-66.0,-101.0,26.0,165.0,-5.0,-59.0,-29.0,89.0,71.0,108.0,135.0,165.0,297.0,-320.0,121.0,-15.0,252.0,38.0,-64.0,-10.0,32.0,-16.0,12.0,40.0,10.0,70.0,90.0,84.0,22.0,-28.0,60.0,-7.0,48.0,54.0,60.0,71.0,70.0,-69.0,-47.0,-109.0,0.0
16:15:00.531 12/08/2009,33.0,82.0,38.0,40.0,10.0,-26.0,95.0,-3.0,10.0,0.0,0.0,34.0,-12.0,-62.0,45.0,-4.0,3.0,-65.0,-13.0,-22.0,-56.0,-254.0,-184.0,-209.0,-159.0,-166.0,-180.0,-232.0,-175.0,-140.0,-99.0,-118.0,-138.0,-122.0,-153.0,-193.0,-402.0,-11.0,97.0,147.0,17.0,-125.0,-175.0,83.0,17.0,-71.0,-2.0,-59.0,-98.0,-49.0,-25.0,-10.0,-52.0,-52.0,108.0,-134.0,-52.0,-31.0,-27.0,-49.0,-13.0,-136.0,-101.0,-140.0,0.0
16:15:00.538 12/08/2009,-43.0,9.0,-11.0,6.0,5.0,-3.0,-12.0,-121.0,-37.0,-20.0,5.0,78.0,86.0,144.0,-42.0,-31.0,8.0,-31.0,53.0,71.0,71.0,-98.0,-139.0,-121.0,0.0,-73.0,-24.0,46.0,-111.0,-93.0,48.0,-21.0,-14.0,30.0,49.0,77.0,274.0,-32.0,149.0,117.0,79.0,-159.0,-90.0,-88.0,-24.0,-22.0,-87.0,-5.0,-39.0,13.0,43.0,48.0,-3.0,-27.0,83.0,3.0,33.0,24.0,2.0,-41.0,73.0,-73.0,-66.0,-86.0,0.0
16:15:00.544 12/08/2009,86.0,99.0,57.0,69.0,60.0,46.0,61.0,40.0,59.0,42.0,43.0,91.0,71.0,18.0,62.0,54.0,61.0,-3.0,55.0,35.0,-7.0,-109.0,-69.0,-122.0,62.0,-113.0,-49.0,-67.0,-43.0,-153.0,87.0,42.0,-5.0,1.0,-17.0,-5.0,3.0,-271.0,157.0,-169.0,288.0,2.0,-74.0,37.0,-4.0,-96.0,-28.0,20.0,-14.0,13.0,21.0,21.0,-49.0,-93.0,-15.0,20.0,24.0,5.0,-21.0,-71.0,44.0,-92.0,-71.0,-84.0,0.0
16:15:00.550 12/08/2009,99.0,83.0,20.0,23.0,21.0,23.0,46.0,-43.0,6.0,-12.0,-10.0,51.0,32.0,-91.0,-25.0,-34.0,-15.0,-63.0,5.0,4.0,-33.0,-160.0,-122.0,-160.0,-193.0,-112.0,-62.0,3.0,-32.0,-130.0,-44.0,-24.0,-48.0,-20.0,-22.0,-2.0,82.0,120.0,71.0,0.0,-118.0,-25.0,-103.0,3.0,-42.0,-53.0,-81.0,-64.0,-108.0,-58.0,-43.0,-26.0,-68.0,-77.0,86.0,-112.0,-52.0,-54.0,-52.0,-83.0,-15.0,-158.0,-133.0,-161.0,0.0
16:15:00.556 12/08/2009,-80.0,-18.0,-58.0,-51.0,-70.0,-125.0,-163.0,-135.0,-73.0,-78.0,-71.0,-17.0,-49.0,-77.0,-71.0,-79.0,-65.0,-109.0,-46.0,-35.0,-43.0,-260.0,-221.0,-325.0,-142.0,-235.0,-157.0,-320.0,-354.0,-187.0,-82.0,-106.0,-101.0,-67.0,-29.0,2.0,-76.0,-329.0,120.0,-27.0,120.0,-20.0,-151.0,72.0,-81.0,-59.0,-103.0,-60.0,-87.0,-29.0,-7.0,15.0,-32.0,-44.0,101.0,-83.0,-11.0,3.0,18.0,12.0,54.0,-82.0,-48.0,-72.0,0.0
16:15:00.563 12/08/2009,72.0,77.0,30.0,39.0,29.0,-1.0,-114.0,69.0,53.0,24.0,27.0,77.0,63.0,21.0,85.0,44.0,44.0,-4.0,62.0,65.0,37.0,-169.0,-120.0,-200.0,-29.0,-47.0,-49.0,-66.0,-300.0,-14.0,-31.0,-44.0,-52.0,-23.0,-34.0,-10.0,-63.0,-169.0,92.0,49.0,-74.0,57.0,-104.0,-98.0,48.0,-45.0,-60.0,-26.0,-89.0,-38.0,-15.0,-10.0,-56.0,-84.0,37.0,-61.0,-17.0,-25.0,-43.0,-92.0,48.0,-109.0,-106.0,-100.0,0.0
16:15:00.569 12/08/2009,-137.0,-71.0,-96.0,-78.0,-73.0,-66.0,2.0,-220.0,-124.0,-113.0,-81.0,-2.0,-5.0,33.0,-118.0,-124.0,-90.0,-120.0,-44.0,-23.0,-32.0,-219.0,-220.0,-263.0,-130.0,-175.0,-173.0,-5.0,-217.0,-103.0,-202.0,-119.0,-134.0,-122.0,-135.0,-159.0,-23.0,-130.0,45.0,-79.0,-66.0,-117.0,-159.0,41.0,-91.0,-96.0,-168.0,-79.0,-126.0,-81.0,-65.0,-54.0,-106.0,-136.0,-13.0,-51.0,-42.0,-53.0,-56.0,-63.0,-31.0,-163.0,-130.0,-177.0,0.0
16:15:00.575 12/08/2009,-16.0,13.0,-44.0,-40.0,-64.0,-97.0,-78.0,-102.0,-50.0,-58.0,-39.0,-1.0,-28.0,-124.0,-40.0,-47.0,-27.0,-69.0,-7.0,-18.0,-70.0,-306.0,-175.0,-125.0,-336.0,-147.0,-109.0,-88.0,-3.0,-241.0,-168.0,-36.0,-76.0,-62.0,-76.0,-96.0,17.0,-120.0,126.0,63.0,82.0,-70.0,-139.0,-33.0,92.0,-115.0,0.0,3.0,-56.0,-6.0,0.0,17.0,-32.0,-54.0,101.0,-25.0,18.0,17.0,4.0,-17.0,86.0,-67.0,-49.0,-79.0,0.0
16:15:00.581 12/08/2009,-30.0,33.0,-13.0,-4.0,-35.0,-74.0,-164.0,-55.0,-12.0,-20.0,-9.0,47.0,16.0,-29.0,26.0,-8.0,10.0,-32.0,35.0,33.0,10.0,-178.0,-144.0,-161.0,-70.0,-196.0,-120.0,-37.0,-177.0,-106.0,-31.0,-57.0,-85.0,-63.0,-85.0,-96.0,-171.0,-203.0,77.0,-21.0,-30.0,-4.0,-63.0,18.0,-97.0,-40.0,-85.0,-30.0,-86.0,-26.0,-8.0,10.0,-34.0,-63.0,74.0,-73.0,-17.0,1.0,0.0,-39.0,21.0,-107.0,-67.0,-129.0,0.0
16:15:00.588 12/08/2009,-58.0,13.0,-16.0,-8.0,-24.0,-32.0,-48.0,-102.0,-23.0,-12.0,10.0,69.0,39.0,-5.0,-27.0,-11.0,21.0,-16.0,58.0,50.0,20.0,-277.0,-246.0,-233.0,-56.0,-237.0,-97.0,-55.0,-190.0,-155.0,-113.0,-2.0,-39.0,-12.0,-8.0,17.0,51.0,-68.0,135.0,92.0,103.0,-46.0,-105.0,-44.0,49.0,-57.0,-50.0,19.0,-20.0,38.0,54.0,59.0,16.0,-27.0,105.0,-11.0,35.0,38.0,29.0,-10.0,70.0,-68.0,-53.0,-83.0,0.0
16:15:00.594 12/08/2009,41.0,90.0,39.0,40.0,3.0,-25.0,-43.0,8.0,40.0,22.0,26.0,67.0,54.0,12.0,39.0,18.0,39.0,-14.0,52.0,42.0,16.0,-159.0,-62.0,-56.0,18.0,-65.0,-42.0,31.0,-52.0,-74.0,-3.0,16.0,0.0,27.0,43.0,71.0,74.0,-270.0,134.0,-49.0,186.0,-86.0,-98.0,14.0,-69.0,-45.0,-73.0,-13.0,-50.0,19.0,37.0,61.0,17.0,5.0,175.0,-40.0,12.0,24.0,31.0,6.0,51.0,-96.0,-81.0,-123.0,0.0
16:15:00.600 12/08/2009,29.0,70.0,33.0,59.0,97.0,148.0,328.0,-10.0,13.0,1.0,20.0,109.0,115.0,111.0,-15.0,-26.0,4.0,-41.0,45.0,58.0,64.0,-195.0,-196.0,-265.0,-75.0,-166.0,-149.0,-107.0,-304.0,-159.0,-100.0,-99.0,-136.0,-106.0,-114.0,-106.0,-86.0,-38.0,58.0,56.0,81.0,-59.0,-219.0,-60.0,-39.0,49.0,-73.0,-39.0,-105.0,-57.0,-50.0,-40.0,-73.0,-79.0,141.0,-44.0,-33.0,-55.0,-65.0,-121.0,-56.0,-180.0,-166.0,-198.0,0.0
16:15:00.606 12/08/2009,-27.0,-8.0,-52.0,-37.0,-82.0,-149.0,-249.0,-96.0,-48.0,-55.0,-42.0,23.0,-8.0,-60.0,-36.0,-44.0,-9.0,-60.0,28.0,24.0,7.0,-143.0,-85.0,-131.0,-32.0,-109.0,-70.0,-11.0,11.0,-77.0,48.0,-32.0,-39.0,-6.0,3.0,31.0,155.0,81.0,160.0,-42.0,43.0,-77.0,-92.0,35.0,-29.0,-131.0,-76.0,-41.0,-59.0,16.0,42.0,50.0,4.0,-46.0,43.0,-67.0,0.0,38.0,28.0,-12.0,82.0,-65.0,-44.0,-82.0,0.0
16:15:00.613 12/08/2009,53.0,92.0,53.0,71.0,89.0,132.0,339.0,46.0,49.0,39.0,58.0,134.0,159.0,142.0,76.0,56.0,64.0,15.0,99.0,95.0,45.0,-190.0,-103.0,-157.0,-60.0,-31.0,-38.0,-99.0,-238.0,-42.0,120.0,47.0,3.0,16.0,14.0,39.0,41.0,-323.0,199.0,0.0,250.0,-89.0,-189.0,-10.0,-45.0,-111.0,-25.0,-15.0,-51.0,3.0,15.0,17.0,-25.0,-43.0,98.0,-91.0,-25.0,-2.0,-8.0,-29.0,-7.0,-142.0,-111.0,-181.0,0.0
16:15:00.619 12/08/2009,3.0,24.0,-42.0,-47.0,-90.0,-164.0,-326.0,-39.0,-41.0,-54.0,-59.0,-1.0,-37.0,-40.0,2.0,-26.0,-20.0,-79.0,-4.0,2.0,-6.0,-254.0,-229.0,-279.0,-256.0,-227.0,-142.0,-137.0,-329.0,-106.0,-81.0,-32.0,-70.0,-60.0,-65.0,-44.0,-148.0,-84.0,111.0,208.0,65.0,37.0,-134.0,64.0,43.0,63.0,49.0,47.0,4.0,51.0,65.0,76.0,34.0,42.0,216.0,-1.0,60.0,76.0,70.0,36.0,89.0,-41.0,-17.0,-33.0,0.0
16:15:00.625 12/08/2009,94.0,114.0,63.0,70.0,61.0,50.0,42.0,53.0,65.0,55.0,63.0,121.0,101.0,24.0,86.0,84.0,92.0,26.0,99.0,99.0,56.0,-145.0,-118.0,-108.0,-71.0,-33.0,-25.0,49.0,-234.0,80.0,85.0,64.0,28.0,29.0,13.0,-18.0,68.0,-156.0,223.0,-110.0,63.0,-223.0,-65.0,-26.0,80.0,-117.0,57.0,64.0,17.0,77.0,65.0,61.0,-1.0,-62.0,41.0,37.0,85.0,83.0,20.0,-32.0,150.0,-14.0,-15.0,-42.0,0.0
16:15:00.631 12/08/2009,27.0,74.0,30.0,29.0,-20.0,-82.0,-201.0,-105.0,2.0,5.0,7.0,55.0,14.0,-89.0,-4.0,14.0,42.0,-21.0,48.0,25.0,-17.0,-209.0,-149.0,-181.0,9.0,-106.0,-81.0,-77.0,-327.0,-213.0,-13.0,-46.0,-56.0,-25.0,-38.0,-33.0,-16.0,-121.0,31.0,-56.0,-224.0,98.0,21.0,-45.0,-8.0,-55.0,-83.0,8.0,-34.0,27.0,36.0,44.0,-5.0,-26.0,68.0,19.0,33.0,31.0,10.0,-29.0,42.0,-95.0,-77.0,-129.0,0.0
16:15:00.638 12/08/2009,-22.0,20.0,-10.0,2.0,7.0,-11.0,-60.0,-124.0,-33.0,-24.0,-4.0,60.0,53.0,37.0,-13.0,-8.0,18.0,-45.0,36.0,33.0,3.0,-182.0,-176.0,-216.0,-85.0,-172.0,-122.0,-41.0,-202.0,-97.0,-70.0,-34.0,-75.0,-45.0,-51.0,-42.0,-172.0,-146.0,90.0,-32.0,45.0,-138.0,-88.0,34.0,44.0,-171.0,-55.0,2.0,-25.0,25.0,29.0,21.0,-44.0,-80.0,7.0,-23.0,31.0,42.0,8.0,-35.0,101.0,-46.0,-39.0,-27.0,0.0
16:15:00.644 12/08/2009,55.0,78.0,33.0,37.0,15.0,-36.0,-128.0,-53.0,14.0,17.0,20.0,70.0,49.0,-76.0,39.0,34.0,60.0,-2.0,73.0,65.0,30.0,-163.0,-145.0,-162.0,-92.0,-105.0,1.0,-5.0,-44.0,-131.0,-195.0,31.0,32.0,70.0,79.0,96.0,176.0,-8.0,168.0,188.0,107.0,97.0,-36.0,4.0,30.0,32.0,-61.0,34.0,3.0,74.0,84.0,98.0,50.0,40.0,163.0,-4.0,41.0,55.0,63.0,41.0,74.0,-65.0,-42.0,-116.0,0.0
16:15:00.650 12/08/2009,54.0,96.0,47.0,56.0,54.0,30.0,49.0,-20.0,8.0,6.0,19.0,90.0,71.0,24.0,-2.0,-13.0,15.0,-38.0,37.0,49.0,33.0,-284.0,-252.0,-218.0,-119.0,-200.0,-107.0,-172.0,-262.0,-195.0,1.0,-55.0,-88.0,-67.0,-81.0,-81.0,-295.0,-213.0,89.0,-82.0,177.0,-120.0,-136.0,25.0,-76.0,-26.0,-109.0,-18.0,-79.0,-9.0,-14.0,-1.0,-40.0,-28.0,146.0,-56.0,-22.0,-10.0,-15.0,-53.0,2.0,-129.0,-104.0,-139.0,0.0
16:15:00.656 12/08/2009,63.0,59.0,2.0,3.0,-7.0,-31.0,22.0,34.0,18.0,2.0,8.0,78.0,78.0,58.0,74.0,46.0,54.0,-10.0,78.0,96.0,99.0,-180.0,-127.0,-169.0,-193.0,-79.0,-27.0,98.0,-96.0,-84.0,-80.0,64.0,31.0,63.0,86.0,105.0,475.0,158.0,147.0,164.0,171.0,-29.0,-2.0,48.0,70.0,-33.0,17.0,91.0,38.0,121.0,107.0,111.0,70.0,36.0,162.0,48.0,88.0,101.0,84.0,83.0,152.0,-6.0,9.0,-6.0,0.0
16:15:00.663 12/08/2009,54.0,99.0,53.0,56.0,45.0,-13.0,-67.0,-41.0,17.0,14.0,15.0,70.0,53.0,-20.0,24.0,14.0,30.0,-32.0,44.0,47.0,11.0,-239.0,-204.0,-220.0,-139.0,-153.0,-94.0,-210.0,-173.0,-154.0,-49.0,-70.0,-59.0,-57.0,-79.0,-54.0,-71.0,-375.0,95.0,-82.0,17.0,-74.0,-194.0,28.0,84.0,-44.0,14.0,31.0,-41.0,16.0,-2.0,9.0,-24.0,-30.0,128.0,11.0,21.0,24.0,14.0,-18.0,71.0,-73.0,-48.0,-67.0,0.0
16:15:00.669 12/08/2009,10.0,18.0,-31.0,-38.0,-51.0,-84.0,-82.0,-89.0,-46.0,-43.0,-35.0,14.0,10.0,-45.0,-31.0,-36.0,-11.0,-73.0,8.0,21.0,3.0,-257.0,-210.0,-263.0,-171.0,-213.0,-118.0,-52.0,-263.0,-158.0,-30.0,-45.0,-95.0,-65.0,-67.0,-64.0,-17.0,-242.0,127.0,-112.0,57.0,-108.0,-107.0,-17.0,-86.0,-130.0,-68.0,5.0,-53.0,7.0,-15.0,-1.0,-33.0,-63.0,99.0,1.0,14.0,9.0,-23.0,-88.0,40.0,-97.0,-80.0,-119.0,0.0
16:15:00.675 12/08/2009,20.0,37.0,-8.0,-8.0,-8.0,-29.0,-1.0,1.0,3.0,-10.0,-5.0,44.0,49.0,1.0,71.0,26.0,36.0,-27.0,43.0,53.0,25.0,-165.0,-110.0,-102.0,1.0,-112.0,-77.0,-45.0,-210.0,10.0,48.0,-6.0,-15.0,-1.0,-16.0,-16.0,26.0,-47.0,166.0,-17.0,150.0,42.0,-61.0,56.0,91.0,-34.0,63.0,76.0,18.0,88.0,81.0,84.0,44.0,16.0,111.0,56.0,79.0,92.0,74.0,41.0,113.0,-10.0,16.0,-25.0,0.0
16:15:00.681 12/08/2009,8.0,48.0,14.0,23.0,34.0,58.0,289.0,-63.0,-15.0,-8.0,4.0,70.0,93.0,53.0,15.0,-7.0,14.0,-40.0,36.0,56.0,32.0,-247.0,-222.0,-205.0,-95.0,-198.0,-156.0,-130.0,-362.0,-79.0,-52.0,-128.0,-128.0,-99.0,-89.0,-53.0,49.0,-280.0,105.0,-49.0,64.0,-63.0,-174.0,18.0,-62.0,-114.0,-43.0,-21.0,-84.0,-30.0,-41.0,-31.0,-62.0,-60.0,92.0,-42.0,-21.0,-26.0,-20.0,-14.0,-20.0,-129.0,-110.0,-147.0,0.0
16:15:00.688 12/08/2009,-3.0,-19.0,-80.0,-95.0,-129.0,-202.0,-342.0,-54.0,-51.0,-74.0,-79.0,-29.0,-51.0,-50.0,12.0,-32.0,-26.0,-89.0,-6.0,11.0,4.0,-287.0,-216.0,-184.0,-238.0,-135.0,-168.0,-104.0,-194.0,-164.0,23.0,-49.0,-92.0,-83.0,-99.0,-87.0,-240.0,-199.0,110.0,100.0,24.0,-159.0,-100.0,-15.0,12.0,-43.0,4.0,11.0,-36.0,37.0,42.0,61.0,32.0,20.0,127.0,-35.0,22.0,51.0,55.0,66.0,129.0,-30.0,-26.0,-33.0,0.0
16:15:00.694 12/08/2009,39.0,57.0,6.0,-7.0,-11.0,-41.0,-53.0,-84.0,-18.0,-22.0,-21.0,30.0,16.0,-60.0,-2.0,-13.0,0.0,-58.0,-3.0,-14.0,-71.0,-218.0,-218.0,-268.0,-163.0,-123.0,-125.0,-156.0,-295.0,-174.0,-78.0,-70.0,-101.0,-74.0,-83.0,-106.0,10.0,-208.0,91.0,-58.0,-4.0,58.0,-67.0,31.0,-8.0,-136.0,-49.0,-28.0,-55.0,9.0,5.0,-1.0,-41.0,-74.0,60.0,-4.0,22.0,29.0,2.0,-42.0,92.0,-55.0,-35.0,-72.0,0.0
16:15:00.700 12/08/2009,24.0,39.0,-11.0,-17.0,-42.0,-95.0,-156.0,-48.0,-11.0,-11.0,-15.0,39.0,20.0,-36.0,27.0,5.0,23.0,-35.0,36.0,42.0,20.0,-172.0,-258.0,-197.0,-23.0,-177.0,-131.0,-34.0,-177.0,-88.0,-269.0,-25.0,-79.0,-58.0,-51.0,-24.0,-138.0,-179.0,145.0,54.0,133.0,-224.0,-126.0,-16.0,-77.0,-78.0,-92.0,-29.0,-75.0,-4.0,-4.0,-2.0,-38.0,-63.0,58.0,-63.0,-21.0,-1.0,-15.0,-67.0,42.0,-95.0,-72.0,-87.0,0.0
16:15:00.706 12/08/2009,24.0,15.0,-45.0,-49.0,-41.0,-52.0,-21.0,-59.0,-43.0,-53.0,-49.0,8.0,6.0,-71.0,-20.0,-41.0,-23.0,-77.0,-7.0,1.0,-35.0,-299.0,-249.0,-172.0,-411.0,-238.0,-167.0,-257.0,-226.0,-168.0,-12.0,-59.0,-86.0,-76.0,-68.0,-17.0,-299.0,-74.0,78.0,94.0,35.0,48.0,-69.0,36.0,63.0,5.0,54.0,51.0,12.0,80.0,82.0,99.0,55.0,32.0,204.0,57.0,96.0,115.0,103.0,62.0,157.0,20.0,37.0,-16.0,0.0
16:15:00.713 12/08/2009,39.0,91.0,46.0,50.0,45.0,9.0,-53.0,-32.0,37.0,38.0,48.0,97.0,95.0,25.0,55.0,44.0,69.0,15.0,91.0,102.0,79.0,-222.0,-149.0,-123.0,-277.0,-158.0,-141.0,-89.0,-219.0,-114.0,-95.0,-52.0,-106.0,-84.0,-73.0,-42.0,212.0,-202.0,146.0,-72.0,65.0,-7.0,-145.0,-65.0,-3.0,73.0,12.0,22.0,-49.0,23.0,11.0,24.0,2.0,-11.0,174.0,-27.0,25.0,39.0,44.0,31.0,85.0,-52.0,-42.0,-74.0,0.0
16:15:00.719 12/08/2009,-5.0,20.0,-48.0,-54.0,-43.0,-77.0,-107.0,-55.0,-31.0,-33.0,-31.0,25.0,16.0,-57.0,10.0,-2.0,12.0,-43.0,29.0,33.0,12.0,-247.0,-245.0,-194.0,-221.0,-187.0,-126.0,-160.0,-186.0,-223.0,-203.0,-28.0,-73.0,-44.0,-12.0,54.0,-30.0,79.0,150.0,128.0,41.0,4.0,-168.0,53.0,62.0,-74.0,44.0,61.0,-4.0,53.0,43.0,41.0,-3.0,-42.0,111.0,34.0,66.0,73.0,30.0,-36.0,111.0,-22.0,-18.0,-46.0,0.0
16:15:00.725 12/08/2009,2.0,55.0,-2.0,-5.0,-15.0,-61.0,-130.0,-77.0,-19.0,-15.0,-16.0,13.0,-12.0,-111.0,9.0,-5.0,16.0,-53.0,-4.0,-6.0,-58.0,-331.0,-246.0,-212.0,-347.0,-176.0,-113.0,-116.0,-178.0,-116.0,-8.0,-21.0,-58.0,-68.0,-105.0,-143.0,-96.0,-301.0,115.0,-173.0,-7.0,-33.0,-88.0,37.0,-10.0,-82.0,-39.0,38.0,-7.0,59.0,59.0,55.0,14.0,-25.0,121.0,42.0,80.0,104.0,69.0,44.0,165.0,23.0,39.0,41.0,0.0
16:15:00.731 12/08/2009,-12.0,66.0,14.0,2.0,-11.0,-65.0,-150.0,-65.0,6.0,8.0,14.0,47.0,37.0,-72.0,10.0,21.0,45.0,-20.0,55.0,43.0,-8.0,-188.0,-177.0,-93.0,-142.0,-175.0,-135.0,-10.0,-271.0,-94.0,-118.0,-70.0,-100.0,-74.0,-74.0,-71.0,1.0,-224.0,131.0,18.0,90.0,-101.0,-181.0,-1.0,-5.0,-110.0,-37.0,17.0,-33.0,31.0,28.0,43.0,16.0,-8.0,115.0,-24.0,24.0,53.0,50.0,44.0,40.0,-88.0,-62.0,-158.0,0.0
16:15:00.738 12/08/2009,7.0,36.0,-29.0,-37.0,-10.0,-5.0,100.0,-24.0,4.0,-17.0,0.0,54.0,73.0,52.0,39.0,16.0,31.0,-24.0,59.0,69.0,48.0,-278.0,-230.0,-155.0,-163.0,-209.0,-137.0,-126.0,-260.0,-155.0,-92.0,-77.0,-77.0,-47.0,-38.0,16.0,54.0,-338.0,87.0,-44.0,40.0,-10.0,-145.0,26.0,4.0,-93.0,41.0,68.0,29.0,87.0,88.0,92.0,56.0,16.0,114.0,52.0,83.0,114.0,79.0,24.0,144.0,9.0,16.0,-7.0,0.0
16:15:00.744 12/08/2009,11.0,76.0,31.0,30.0,51.0,37.0,11.0,-51.0,43.0,39.0,63.0,109.0,129.0,124.0,26.0,53.0,88.0,44.0,121.0,139.0,130.0,-208.0,-163.0,-95.0,-161.0,-97.0,-65.0,-44.0,-136.0,-54.0,-4.0,-49.0,-41.0,-9.0,-17.0,-32.0,-64.0,30.0,61.0,-14.0,-65.0,-101.0,-119.0,-24.0,42.0,29.0,-70.0,24.0,10.0,83.0,86.0,98.0,83.0,63.0,210.0,-8.0,51.0,87.0,90.0,93.0,86.0,-54.0,-18.0,-133.0,0.0
16:15:00.750 12/08/2009,20.0,67.0,0.0,-5.0,7.0,-3.0,156.0,-30.0,21.0,-7.0,-7.0,37.0,22.0,-88.0,43.0,1.0,11.0,-55.0,1.0,-12.0,-76.0,-241.0,-302.0,-213.0,-171.0,-212.0,-209.0,-94.0,-311.0,-194.0,-120.0,-114.0,-163.0,-148.0,-147.0,-131.0,32.0,-295.0,-17.0,-13.0,60.0,-82.0,-120.0,1.0,-178.0,-94.0,-135.0,-29.0,-64.0,1.0,-1.0,6.0,-25.0,-46.0,103.0,-21.0,17.0,43.0,22.0,-39.0,29.0,-69.0,-27.0,-75.0,0.0
16:15:00.756 12/08/2009,21.0,56.0,-6.0,-5.0,17.0,-22.0,-114.0,68.0,60.0,29.0,26.0,96.0,110.0,109.0,101.0,83.0,95.0,35.0,112.0,125.0,105.0,-188.0,-134.0,-71.0,-216.0,-165.0,-91.0,-42.0,-202.0,-163.0,-89.0,30.0,-24.0,-15.0,-10.0,11.0,108.0,-12.0,202.0,44.0,221.0,-112.0,-122.0,-5.0,55.0,-4.0,-22.0,49.0,22.0,87.0,86.0,93.0,68.0,40.0,179.0,2.0,79.0,118.0,124.0,153.0,160.0,25.0,61.0,26.0,0.0
16:15:00.763 12/08/2009,24.0,94.0,10.0,-7.0,-26.0,-82.0,-154.0,-59.0,20.0,10.0,16.0,57.0,37.0,-110.0,39.0,39.0,62.0,14.0,91.0,94.0,67.0,-237.0,-174.0,-163.0,-208.0,-119.0,-106.0,-122.0,-268.0,-84.0,-76.0,-7.0,-50.0,-44.0,-48.0,-54.0,-164.0,-103.0,121.0,75.0,-30.0,-3.0,14.0,82.0,91.0,-28.0,57.0,77.0,15.0,74.0,69.0,81.0,37.0,17.0,178.0,38.0,95.0,97.0,62.0,-1.0,133.0,-11.0,2.0,-21.0,0.0
16:15:00.769 12/08/2009,-13.0,50.0,-21.0,-23.0,-10.0,-20.0,-12.0,-72.0,1.0,-13.0,-3.0,59.0,60.0,25.0,37.0,28.0,43.0,-8.0,68.0,78.0,42.0,-285.0,-204.0,-125.0,-191.0,-242.0,-133.0,-98.0,-180.0,-164.0,-177.0,-53.0,-78.0,-49.0,-34.0,21.0,2.0,-40.0,111.0,24.0,169.0,-112.0,-148.0,21.0,77.0,-15.0,96.0,105.0,46.0,103.0,102.0,116.0,82.0,57.0,232.0,90.0,130.0,145.0,114.0,65.0,179.0,31.0,44.0,8.0,0.0
16:15:00.775 12/08/2009,47.0,109.0,37.0,32.0,41.0,29.0,66.0,-12.0,60.0,47.0,49.0,108.0,124.0,96.0,80.0,81.0,104.0,53.0,119.0,140.0,118.0,-177.0,-112.0,-43.0,-296.0,-60.0,-74.0,-159.0,-181.0,-70.0,-41.0,4.0,-30.0,-21.0,-40.0,-42.0,-61.0,-171.0,131.0,-21.0,-6.0,63.0,-35.0,4.0,28.0,-1.0,49.0,65.0,23.0,96.0,104.0,101.0,62.0,15.0,154.0,44.0,98.0,127.0,68.0,27.0,152.0,14.0,17.0,10.0,0.0
16:15:00.781 12/08/2009,11.0,73.0,-11.0,-17.0,-35.0,-80.0,-121.0,-76.0,5.0,-15.0,-18.0,17.0,-9.0,-131.0,-20.0,-6.0,20.0,-44.0,17.0,9.0,-27.0,-247.0,-237.0,-179.0,-213.0,-231.0,-146.0,-66.0,-269.0,-198.0,-186.0,-96.0,-127.0,-116.0,-140.0,-141.0,-108.0,-130.0,37.0,-16.0,-55.0,-11.0,-212.0,-18.0,-69.0,-100.0,-111.0,-54.0,-98.0,-28.0,-21.0,-21.0,-62.0,-88.0,29.0,-65.0,-18.0,21.0,-20.0,-46.0,39.0,-96.0,-76.0,-102.0,0.0
16:15:00.788 12/08/2009,-119.0,-29.0,-91.0,-93.0,-95.0,-147.0,-190.0,-160.0,-86.0,-85.0,-73.0,-21.0,-48.0,-117.0,-54.0,-58.0,-36.0,-86.0,-18.0,-14.0,-39.0,-323.0,-246.0,-204.0,-100.0,-316.0,-136.0,-154.0,-176.0,-141.0,-104.0,-87.0,-103.0,-65.0,-34.0,15.0,119.0,11.0,61.0,135.0,80.0,65.0,-172.0,60.0,26.0,-10.0,38.0,28.0,-20.0,48.0,54.0,66.0,36.0,-6.0,125.0,19.0,62.0,90.0,55.0,16.0,81.0,-42.0,-15.0,-63.0,0.0
16:15:00.794 12/08/2009,-5.0,54.0,-4.0,10.0,61.0,79.0,229.0,-64.0,-12.0,-13.0,10.0,77.0,108.0,90.0,6.0,-2.0,23.0,-22.0,54.0,70.0,43.0,-275.0,-217.0,-142.0,-165.0,-180.0,-153.0,-87.0,-204.0,-162.0,-146.0,-98.0,-118.0,-95.0,-111.0,-117.0,-216.0,-369.0,49.0,-115.0,-136.0,-246.0,-162.0,-121.0,-23.0,-95.0,-74.0,-44.0,-90.0,-14.0,0.0,7.0,-18.0,-45.0,90.0,-76.0,-22.0,27.0,17.0,35.0,31.0,-97.0,-74.0,-136.0,0.0
16:15:00.800 12/08/2009,-119.0,-59.0,-122.0,-118.0,-133.0,-177.0,-287.0,-184.0,-118.0,-119.0,-112.0,-62.0,-81.0,-105.0,-87.0,-96.0,-76.0,-120.0,-52.0,-48.0,-58.0,-290.0,-263.0,-144.0,-282.0,-250.0,-253.0,-285.0,-153.0,-263.0,-241.0,-181.0,-215.0,-185.0,-183.0,-184.0,110.0,-51.0,4.0,-48.0,-8.0,-99.0,-177.0,-47.0,-36.0,-122.0,-86.0,-68.0,-112.0,-46.0,-37.0,-36.0,-68.0,-90.0,64.0,-55.0,-15.0,14.0,-31.0,-82.0,51.0,-87.0,-69.0,-82.0,0.0
16:15:00.806 12/08/2009,-72.0,-25.0,-91.0,-84.0,-90.0,-116.0,-188.0,-86.0,-50.0,-76.0,-72.0,-13.0,-29.0,-111.0,-9.0,-21.0,-12.0,-62.0,3.0,12.0,-8.0,-217.0,-241.0,-128.0,-173.0,-257.0,-174.0,-171.0,-105.0,-112.0,-80.0,-61.0,-107.0,-96.0,-84.0,-52.0,-83.0,-195.0,191.0,-101.0,273.0,31.0,-270.0,20.0,-3.0,10.0,11.0,36.0,-7.0,56.0,73.0,75.0,49.0,35.0,187.0,20.0,68.0,101.0,68.0,48.0,113.0,-16.0,5.0,-14.0,0.0
16:15:00.813 12/08/2009,54.0,80.0,-1.0,-10.0,-9.0,-45.0,-102.0,16.0,41.0,10.0,5.0,55.0,49.0,-12.0,53.0,46.0,54.0,2.0,60.0,70.0,50.0,-239.0,-143.0,-108.0,-77.0,-165.0,-172.0,-86.0,-213.0,-125.0,-181.0,-70.0,-119.0,-98.0,-99.0,-93.0,-137.0,-270.0,105.0,-71.0,186.0,-3.0,-160.0,36.0,1.0,-21.0,-35.0,22.0,-17.0,33.0,43.0,51.0,24.0,0.0,115.0,8.0,46.0,76.0,42.0,35.0,100.0,-41.0,-26.0,-69.0,0.0
16:15:00.819 12/08/2009,-34.0,23.0,-44.0,-42.0,-11.0,-6.0,108.0,-41.0,-7.0,-32.0,-25.0,37.0,46.0,9.0,-21.0,-12.0,12.0,-45.0,26.0,45.0,38.0,-281.0,-242.0,-194.0,-154.0,-203.0,-211.0,-215.0,-240.0,-137.0,-143.0,-114.0,-149.0,-133.0,-125.0,-111.0,-90.0,-118.0,72.0,6.0,-64.0,107.0,-121.0,8.0,0.0,-40.0,-44.0,-8.0,-44.0,13.0,27.0,40.0,18.0,22.0,169.0,-55.0,20.0,69.0,39.0,30.0,77.0,-52.0,-31.0,-69.0,0.0
16:15:00.825 12/08/2009,-22.0,47.0,-11.0,-10.0,8.0,-33.0,-86.0,-48.0,21.0,9.0,16.0,60.0,65.0,41.0,82.0,65.0,73.0,9.0,69.0,68.0,34.0,-212.0,-178.0,-203.0,-147.0,-128.0,-92.0,35.0,-271.0,-148.0,7.0,-13.0,-42.0,-2.0,50.0,106.0,304.0,-205.0,168.0,83.0,120.0,-238.0,-143.0,13.0,138.0,-134.0,92.0,102.0,51.0,90.0,92.0,81.0,48.0,15.0,155.0,95.0,98.0,118.0,56.0,4.0,137.0,-4.0,-1.0,-6.0,0.0
16:15:00.831 12/08/2009,39.0,93.0,20.0,12.0,9.0,-56.0,-100.0,-11.0,28.0,8.0,4.0,35.0,7.0,-55.0,45.0,27.0,37.0,-29.0,23.0,24.0,-16.0,-309.0,-262.0,-202.0,-269.0,-195.0,-181.0,-282.0,-332.0,-126.0,-112.0,-39.0,-108.0,-140.0,-192.0,-225.0,-262.0,-184.0,95.0,-125.0,47.0,-97.0,-171.0,-108.0,-74.0,-58.0,46.0,25.0,-43.0,6.0,13.0,14.0,-2.0,8.0,164.0,-67.0,11.0,56.0,42.0,39.0,73.0,-59.0,-36.0,-73.0,0.0
16:15:00.838 12/08/2009,-27.0,9.0,-63.0,-73.0,-96.0,-155.0,-148.0,-68.0,-32.0,-44.0,-40.0,4.0,-17.0,-63.0,26.0,-4.0,8.0,-42.0,24.0,30.0,19.0,-404.0,-314.0,-260.0,-282.0,-209.0,-184.0,-86.0,-341.0,-163.0,-106.0,-78.0,-127.0,-108.0,-98.0,-79.0,-111.0,-124.0,74.0,14.0,-68.0,-86.0,-144.0,15.0,6.0,-79.0,-89.0,3.0,-30.0,47.0,54.0,50.0,17.0,-22.0,82.0,26.0,66.0,101.0,52.0,13.0,152.0,6.0,17.0,7.0,0.0
16:15:00.844 12/08/2009,-39.0,31.0,-18.0,-17.0,-2.0,-42.0,-64.0,-91.0,-12.0,-2.0,19.0,61.0,48.0,-40.0,7.0,32.0,63.0,17.0,69.0,60.0,3.0,-225.0,-186.0,-153.0,-170.0,-213.0,-99.0,-81.0,23.0,-130.0,-288.0,-40.0,-65.0,-56.0,-88.0,-99.0,-96.0,-65.0,97.0,22.0,29.0,-192.0,-85.0,15.0,-3.0,-164.0,34.0,44.0,-13.0,63.0,68.0,55.0,20.0,-12.0,71.0,16.0,51.0,86.0,56.0,46.0,116.0,-29.0,-8.0,-55.0,0.0
16:15:00.850 12/08/2009,4.0,40.0,-39.0,-45.0,-41.0,-77.0,-62.0,-31.0,-4.0,-27.0,-15.0,32.0,26.0,0.0,11.0,3.0,15.0,-35.0,31.0,40.0,21.0,-298.0,-206.0,-149.0,-253.0,-360.0,-218.0,-219.0,-164.0,-213.0,-155.0,-76.0,-155.0,-139.0,-129.0,-110.0,13.0,-230.0,78.0,-115.0,154.0,-63.0,-211.0,-58.0,-78.0,-16.0,-107.0,-15.0,-54.0,24.0,41.0,41.0,23.0,15.0,187.0,-13.0,20.0,71.0,32.0,-17.0,69.0,-68.0,-49.0,-90.0,0.0
16:15:00.856 12/08/2009,67.0,64.0,-8.0,-8.0,37.0,64.0,215.0,-50.0,21.0,13.0,40.0,80.0,106.0,83.0,1.0,29.0,51.0,6.0,71.0,87.0,80.0,-225.0,-206.0,-134.0,-144.0,-174.0,-140.0,-93.0,-212.0,-199.0,-81.0,-24.0,-87.0,-74.0,-76.0,-80.0,22.0,-98.0,93.0,27.0,-32.0,-84.0,-146.0,62.0,-31.0,-15.0,-40.0,53.0,1.0,69.0,74.0,61.0,39.0,27.0,160.0,54.0,67.0,100.0,85.0,107.0,126.0,-24.0,-7.0,-54.0,0.0
16:15:00.863 12/08/2009,4.0,42.0,-37.0,-59.0,-86.0,-187.0,-338.0,-60.0,2.0,-21.0,-30.0,-18.0,-53.0,-159.0,6.0,15.0,26.0,-46.0,-1.0,-10.0,-39.0,-338.0,-243.0,-276.0,-246.0,-134.0,-200.0,-227.0,-336.0,-221.0,-43.0,-71.0,-115.0,-124.0,-116.0,-68.0,72.0,-373.0,121.0,-106.0,67.0,-69.0,-204.0,10.0,-48.0,-91.0,-78.0,-20.0,-61.0,10.0,22.0,-2.0,-31.0,-61.0,71.0,-66.0,-4.0,43.0,-11.0,-97.0,69.0,-68.0,-44.0,-66.0,0.0
16:15:00.869 12/08/2009,-42.0,8.0,-58.0,-64.0,-40.0,-88.0,-105.0,-128.0,-43.0,-46.0,-34.0,13.0,1.0,-42.0,-65.0,-35.0,-7.0,-68.0,-10.0,4.0,-15.0,-225.0,-221.0,-212.0,-127.0,-262.0,-215.0,-190.0,-289.0,-225.0,-186.0,-158.0,-176.0,-148.0,-132.0,-116.0,-443.0,-180.0,65.0,-40.0,-108.0,-103.0,-108.0,-17.0,-8.0,-130.0,-46.0,-4.0,-59.0,23.0,25.0,18.0,-11.0,-52.0,27.0,4.0,35.0,69.0,29.0,-27.0,92.0,-39.0,-18.0,-56.0,0.0
16:15:00.875 12/08/2009,-97.0,7.0,-23.0,-12.0,29.0,17.0,132.0,-83.0,14.0,23.0,46.0,105.0,142.0,182.0,43.0,68.0,93.0,41.0,128.0,161.0,170.0,-228.0,-177.0,-196.0,-220.0,-133.0,-79.0,-146.0,-222.0,-61.0,-202.0,-14.0,-34.0,3.0,30.0,48.0,-39.0,-3.0,161.0,121.0,119.0,78.0,-109.0,35.0,13.0,116.0,58.0,93.0,33.0,111.0,125.0,119.0,117.0,112.0,323.0,42.0,88.0,137.0,112.0,74.0,170.0,21.0,25.0,-10.0,0.0
16:15:00.881 12/08/2009,-37.0,66.0,14.0,13.0,43.0,-12.0,-41.0,-37.0,20.0,18.0,26.0,69.0,42.0,-43.0,8.0,11.0,37.0,-12.0,41.0,31.0,-30.0,-244.0,-196.0,-203.0,-99.0,-247.0,-143.0,-7.0,-228.0,-74.0,-79.0,-73.0,-115.0,-88.0,-71.0,-43.0,-11.0,-103.0,96.0,-192.0,19.0,-175.0,-142.0,-64.0,-16.0,-194.0,-50.0,-11.0,-60.0,15.0,20.0,10.0,-16.0,-38.0,72.0,-61.0,-8.0,48.0,31.0,3.0,62.0,-61.0,-29.0,-58.0,0.0
16:15:00.888 12/08/2009,-35.0,24.0,-33.0,-39.0,-21.0,-53.0,77.0,-101.0,-19.0,-22.0,-18.0,27.0,12.0,-62.0,-7.0,-7.0,15.0,-39.0,27.0,18.0,-16.0,-308.0,-170.0,-197.0,-270.0,-214.0,-157.0,-172.0,-219.0,-121.0,-167.0,-97.0,-115.0,-119.0,-141.0,-168.0,-21.0,-205.0,138.0,77.0,62.0,-158.0,-187.0,-63.0,-46.0,-138.0,-8.0,40.0,-20.0,43.0,51.0,33.0,-8.0,-44.0,35.0,24.0,46.0,84.0,37.0,8.0,116.0,-17.0,0.0,-41.0,0.0
16:15:00.894 12/08/2009,-51.0,26.0,-20.0,-31.0,-53.0,-150.0,-297.0,-53.0,24.0,24.0,27.0,48.0,12.0,-85.0,25.0,51.0,84.0,23.0,82.0,57.0,-3.0,-253.0,-186.0,-153.0,-103.0,-252.0,-165.0,-118.0,-176.0,-169.0,-128.0,-79.0,-116.0,-92.0,-103.0,-119.0,10.0,-106.0,79.0,-60.0,8.0,-122.0,-173.0,24.0,-22.0,-32.0,-33.0,43.0,5.0,74.0,91.0,79.0,51.0,22.0,105.0,34.0,51.0,92.0,86.0,138.0,88.0,-44.0,-6.0,-93.0,0.0
16:15:00.900 12/08/2009,-46.0,11.0,-39.0,-42.0,-39.0,-87.0,-102.0,-116.0,-23.0,-29.0,-23.0,32.0,23.0,-11.0,-15.0,-6.0,10.0,-47.0,21.0,39.0,41.0,-279.0,-182.0,-124.0,-142.0,-172.0,-196.0,-122.0,-130.0,-83.0,-168.0,-92.0,-132.0,-124.0,-113.0,-107.0,80.0,-89.0,156.0,146.0,171.0,17.0,-249.0,-89.0,-28.0,-1.0,-29.0,4.0,-52.0,4.0,23.0,9.0,-10.0,-20.0,93.0,15.0,31.0,62.0,12.0,-32.0,108.0,-30.0,-17.0,-3.0,0.0
16:15:00.906 12/08/2009,-15.0,57.0,-5.0,-11.0,17.0,-13.0,-11.0,-67.0,2.0,-10.0,1.0,45.0,36.0,-32.0,5.0,11.0,35.0,-27.0,36.0,27.0,-20.0,-355.0,-173.0,-133.0,-340.0,-236.0,-156.0,-185.0,-211.0,-152.0,-111.0,-45.0,-88.0,-103.0,-111.0,-80.0,-12.0,-214.0,54.0,-149.0,-104.0,-119.0,-110.0,67.0,-99.0,-159.0,-79.0,-33.0,-61.0,7.0,24.0,5.0,-19.0,-54.0,40.0,14.0,32.0,52.0,13.0,2.0,66.0,-50.0,-20.0,-49.0,0.0
16:15:00.913 12/08/2009,-80.0,-10.0,-74.0,-86.0,-94.0,-169.0,-231.0,-161.0,-62.0,-70.0,-62.0,-35.0,-39.0,-90.0,-83.0,-45.0,-15.0,-69.0,-1.0,-1.0,-22.0,-176.0,-191.0,-121.0,-92.0,-183.0,-158.0,-76.0,-153.0,-79.0,-21.0,-56.0,-116.0,-96.0,-91.0,-77.0,24.0,-58.0,133.0,-49.0,-75.0,25.0,-90.0,-15.0,-39.0,-36.0,-90.0,-50.0,-70.0,0.0,29.0,23.0,6.0,-14.0,105.0,-76.0,-21.0,39.0,22.0,-4.0,74.0,-72.0,-54.0,-86.0,0.0
16:15:00.919 12/08/2009,-58.0,0.0,-51.0,-46.0,-13.0,-28.0,26.0,-172.0,-74.0,-73.0,-59.0,-11.0,-24.0,-73.0,-92.0,-83.0,-56.0,-117.0,-45.0,-46.0,-65.0,-305.0,-238.0,-220.0,-268.0,-256.0,-202.0,-79.0,-252.0,-261.0,-141.0,-115.0,-161.0,-138.0,-135.0,-109.0,55.0,209.0,58.0,65.0,-231.0,-101.0,-199.0,-106.0,-110.0,-87.0,-123.0,-69.0,-100.0,-31.0,-12.0,-6.0,-27.0,-34.0,142.0,-42.0,-16.0,34.0,9.0,-30.0,75.0,-65.0,-37.0,-48.0,0.0
16:15:00.925 12/08/2009,-54.0,9.0,-33.0,-34.0,5.0,-40.0,-53.0,-158.0,-35.0,-27.0,-5.0,40.0,52.0,48.0,-42.0,-5.0,29.0,-31.0,56.0,74.0,84.0,-282.0,-261.0,-249.0,-251.0,-178.0,-158.0,-154.0,-416.0,-149.0,-139.0,-53.0,-96.0,-91.0,-100.0,-98.0,-121.0,-369.0,145.0,-93.0,52.0,-76.0,-48.0,-11.0,42.0,-12.0,58.0,56.0,16.0,73.0,87.0,79.0,54.0,13.0,125.0,23.0,71.0,116.0,74.0,42.0,127.0,-2.0,29.0,18.0,0.0
16:15:00.931 12/08/2009,25.0,86.0,25.0,5.0,32.0,-23.0,-50.0,15.0,50.0,30.0,35.0,73.0,74.0,17.0,64.0,52.0,71.0,-8.0,72.0,70.0,34.0,-289.0,-230.0,-262.0,-135.0,-138.0,-120.0,-58.0,-430.0,-163.0,-115.0,-76.0,-97.0,-58.0,-25.0,13.0,-171.0,24.0,110.0,-97.0,188.0,-61.0,-262.0,-60.0,-129.0,-95.0,-139.0,-42.0,-78.0,-17.0,2.0,-9.0,-21.0,-22.0,118.0,-42.0,-30.0,24.0,21.0,40.0,26.0,-104.0,-69.0,-64.0,0.0
16:15:00.938 12/08/2009,-141.0,-70.0,-112.0,-114.0,-75.0,-106.0,-37.0,-164.0,-105.0,-105.0,-80.0,-23.0,-17.0,-37.0,-95.0,-72.0,-30.0,-96.0,-5.0,24.0,24.0,-401.0,-326.0,-340.0,-116.0,-294.0,-212.0,-298.0,-339.0,-158.0,-172.0,-103.0,-134.0,-127.0,-111.0,-62.0,141.0,-180.0,56.0,49.0,-112.0,22.0,-200.0,20.0,42.0,16.0,115.0,48.0,7.0,56.0,73.0,76.0,65.0,70.0,233.0,22.0,64.0,106.0,69.0,35.0,136.0,-20.0,-11.0,-25.0,0.0
16:15:00.944 12/08/2009,-26.0,21.0,-24.0,-33.0,-3.0,-38.0,-54.0,-124.0,-30.0,-30.0,-25.0,20.0,34.0,45.0,-38.0,-10.0,17.0,-51.0,20.0,23.0,-21.0,-303.0,-213.0,-133.0,-265.0,-341.0,-168.0,-241.0,-251.0,-219.0,-292.0,-83.0,-115.0,-117.0,-128.0,-108.0,-316.0,-252.0,-21.0,-200.0,29.0,-279.0,-143.0,-52.0,-131.0,-210.0,-204.0,-91.0,-82.0,-12.0,-3.0,-18.0,-55.0,-120.0,-35.0,-69.0,-27.0,27.0,-39.0,-100.0,58.0,-88.0,-67.0,-65.0,0.0
16:15:00.950 12/08/2009,-64.0,-23.0,-75.0,-87.0,-53.0,-79.0,74.0,-135.0,-83.0,-85.0,-82.0,-30.0,-45.0,-144.0,-88.0,-70.0,-33.0,-114.0,-40.0,-61.0,-105.0,-374.0,-293.0,-231.0,-233.0,-289.0,-244.0,-325.0,-325.0,-226.0,-201.0,-139.0,-180.0,-187.0,-192.0,-196.0,-172.0,-134.0,64.0,-59.0,97.0,-132.0,-209.0,-10.0,-124.0,-147.0,-156.0,-80.0,-98.0,-34.0,-40.0,-51.0,-80.0,-106.0,7.0,-72.0,-35.0,13.0,-26.0,-55.0,46.0,-96.0,-67.0,-68.0,0.0
16:15:00.956 12/08/2009,-13.0,-13.0,-75.0,-101.0,-109.0,-197.0,-278.0,-54.0,-34.0,-58.0,-54.0,-32.0,-41.0,-68.0,-31.0,-12.0,10.0,-75.0,5.0,6.0,-18.0,-251.0,-235.0,-202.0,-188.0,-160.0,-148.0,-52.0,-121.0,-87.0,-64.0,-68.0,-102.0,-96.0,-116.0,-136.0,-65.0,-127.0,143.0,53.0,-73.0,-173.0,-139.0,-55.0,-18.0,-89.0,-72.0,-26.0,-39.0,21.0,29.0,3.0,-25.0,-53.0,52.0,-30.0,7.0,41.0,-1.0,-44.0,72.0,-68.0,-40.0,-64.0,0.0
16:15:00.963 12/08/2009,-46.0,10.0,-37.0,-57.0,-55.0,-139.0,-162.0,-93.0,-16.0,-34.0,-32.0,-14.0,-40.0,-128.0,17.0,20.0,28.0,-61.0,-3.0,-10.0,-50.0,-273.0,-186.0,-133.0,-156.0,-160.0,-135.0,-103.0,-222.0,-12.0,-34.0,-30.0,-81.0,-85.0,-96.0,-99.0,39.0,-131.0,181.0,-86.0,54.0,-91.0,-76.0,-64.0,89.0,-82.0,72.0,43.0,0.0,41.0,43.0,29.0,4.0,18.0,136.0,-34.0,25.0,56.0,40.0,31.0,52.0,-77.0,-39.0,-85.0,0.0
16:15:00.969 12/08/2009,-37.0,11.0,-36.0,-48.0,-9.0,-17.0,138.0,-86.0,-20.0,-48.0,-37.0,17.0,22.0,-34.0,-31.0,-23.0,-5.0,-83.0,-10.0,6.0,-20.0,-326.0,-300.0,-210.0,-265.0,-263.0,-209.0,-135.0,-353.0,-237.0,-303.0,-169.0,-175.0,-157.0,-172.0,-168.0,-51.0,-149.0,48.0,-40.0,-24.0,-2.0,-187.0,-39.0,-81.0,-41.0,-76.0,-42.0,-72.0,-14.0,-13.0,-17.0,-38.0,-36.0,86.0,-17.0,6.0,39.0,7.0,-53.0,107.0,-37.0,-15.0,24.0,0.0
16:15:00.975 12/08/2009,-54.0,-11.0,-54.0,-74.0,-62.0,-137.0,-190.0,-55.0,-15.0,-39.0,-50.0,-11.0,-11.0,-75.0,9.0,17.0,36.0,-47.0,18.0,30.0,15.0,-281.0,-212.0,-159.0,-212.0,-138.0,-180.0,-163.0,-349.0,-139.0,-101.0,-23.0,-105.0,-122.0,-139.0,-129.0,-78.0,-212.0,167.0,-63.0,-49.0,29.0,-111.0,-32.0,21.0,13.0,-1.0,24.0,-11.0,44.0,50.0,31.0,17.0,4.0,120.0,47.0,49.0,68.0,44.0,41.0,69.0,-46.0,-11.0,-21.0,0.0
16:15:00.981 12/08/2009,-29.0,-1.0,-62.0,-84.0,-68.0,-128.0,-154.0,-125.0,-57.0,-67.0,-68.0,-12.0,-1.0,24.0,-65.0,-41.0,-20.0,-95.0,-14.0,10.0,-4.0,-388.0,-258.0,-183.0,-177.0,-374.0,-271.0,-213.0,-327.0,-208.0,-128.0,-167.0,-216.0,-215.0,-224.0,-200.0,-363.0,-389.0,91.0,-134.0,-38.0,-181.0,-286.0,-19.0,-122.0,-188.0,-157.0,-107.0,-144.0,-87.0,-73.0,-89.0,-90.0,-96.0,29.0,-150.0,-87.0,-40.0,-63.0,-103.0,9.0,-134.0,-121.0,-76.0,0.0
16:15:00.988 12/08/2009,-108.0,-84.0,-120.0,-127.0,-50.0,-43.0,5.0,-104.0,-87.0,-115.0,-102.0,-36.0,-17.0,-26.0,-49.0,-55.0,-53.0,-123.0,-42.0,-27.0,-27.0,-343.0,-301.0,-272.0,-349.0,-266.0,-229.0,-184.0,-260.0,-294.0,-233.0,-147.0,-186.0,-176.0,-172.0,-147.0,-165.0,-36.0,-22.0,-49.0,-98.0,-242.0,-102.0,-61.0,-75.0,-152.0,-48.0,-22.0,-84.0,-37.0,-36.0,-43.0,-56.0,-61.0,63.0,13.0,-5.0,6.0,-20.0,-56.0,27.0,-110.0,-72.0,-119.0,0.0
16:15:00.994 12/08/2009,-100.0,-50.0,-90.0,-97.0,-81.0,-137.0,-187.0,-140.0,-70.0,-77.0,-71.0,-25.0,-23.0,-65.0,-91.0,-41.0,-17.0,-78.0,5.0,19.0,3.0,-303.0,-191.0,-230.0,-239.0,-246.0,-199.0,-185.0,-437.0,-221.0,-281.0,-117.0,-150.0,-106.0,-46.0,1.0,202.0,-15.0,86.0,-140.0,-32.0,45.0,-180.0,10.0,-106.0,-44.0,-157.0,-85.0,-95.0,-14.0,-5.0,-2.0,-10.0,-1.0,148.0,-98.0,-26.0,24.0,12.0,-26.0,77.0,-73.0,-50.0,-56.0,0.0
16:15:01.000 12/08/2009,-127.0,-80.0,-123.0,-135.0,-91.0,-124.0,-84.0,-195.0,-130.0,-134.0,-126.0,-75.0,-66.0,-88.0,-145.0,-118.0,-93.0,-148.0,-72.0,-60.0,-88.0,-341.0,-270.0,-195.0,-243.0,-329.0,-272.0,-389.0,-340.0,-204.0,-264.0,-210.0,-224.0,-228.0,-248.0,-220.0,-139.0,-379.0,72.0,18.0,-17.0,-192.0,-202.0,-124.0,-187.0,-205.0,-172.0,-109.0,-142.0,-76.0,-74.0,-81.0,-101.0,-103.0,-18.0,-80.0,-44.0,-21.0,-39.0,-57.0,50.0,-91.0,-70.0,-43.0,12587.0
16:15:01.006 12/08/2009,-87.0,-74.0,-128.0,-150.0,-122.0,-192.0,-304.0,-77.0,-76.0,-108.0,-110.0,-78.0,-82.0,-157.0,-59.0,-48.0,-44.0,-106.0,-41.0,-26.0,-44.0,-322.0,-235.0,-237.0,-146.0,-263.0,-199.0,-90.0,-419.0,-128.0,-66.0,-114.0,-145.0,-123.0,-118.0,-90.0,-174.0,-75.0,144.0,-25.0,132.0,-160.0,-178.0,17.0,-23.0,-7.0,-26.0,-10.0,-30.0,39.0,39.0,42.0,34.0,43.0,154.0,-4.0,43.0,76.0,91.0,118.0,131.0,-3.0,35.0,29.0,12587.0
16:15:01.013 12/08/2009,7.0,15.0,-37.0,-56.0,-13.0,-71.0,-122.0,-79.0,-14.0,-42.0,-34.0,3.0,21.0,-22.0,-17.0,-8.0,6.0,-60.0,17.0,38.0,26.0,-282.0,-249.0,-261.0,-172.0,-209.0,-177.0,-304.0,-249.0,-152.0,-28.0,-95.0,-128.0,-116.0,-98.0,-53.0,24.0,-200.0,129.0,-48.0,-15.0,-73.0,-141.0,-44.0,12.0,-117.0,-23.0,-10.0,-56.0,-1.0,1.0,-18.0,-36.0,-57.0,16.0,3.0,16.0,31.0,4.0,-48.0,81.0,-50.0,-26.0,-31.0,5140.0
16:15:01.019 12/08/2009,-46.0,-21.0,-69.0,-95.0,-41.0,-88.0,-111.0,-127.0,-61.0,-78.0,-70.0,-25.0,-16.0,-67.0,-65.0,-48.0,-24.0,-94.0,-20.0,-19.0,-63.0,-348.0,-256.0,-247.0,-358.0,-251.0,-184.0,-128.0,-374.0,-297.0,-125.0,-150.0,-158.0,-125.0,-106.0,-40.0,-221.0,-138.0,48.0,-18.0,-109.0,-56.0,-222.0,-99.0,-99.0,-144.0,-106.0,-62.0,-78.0,-12.0,-3.0,-10.0,-27.0,-48.0,24.0,-59.0,-13.0,33.0,18.0,-7.0,93.0,-46.0,-23.0,-37.0,5140.0
16:15:01.025 12/08/2009,-131.0,-63.0,-93.0,-127.0,-72.0,-117.0,44.0,-173.0,-96.0,-101.0,-99.0,-68.0,-78.0,-171.0,-106.0,-70.0,-35.0,-119.0,-55.0,-61.0,-97.0,-397.0,-228.0,-149.0,-312.0,-261.0,-228.0,-94.0,-247.0,-247.0,-185.0,-108.0,-160.0,-178.0,-220.0,-288.0,-95.0,-135.0,100.0,-104.0,-29.0,-87.0,-172.0,-123.0,-64.0,-131.0,-49.0,-21.0,-35.0,27.0,30.0,6.0,-22.0,-32.0,92.0,39.0,59.0,81.0,55.0,13.0,163.0,16.0,29.0,51.0,0.0
16:15:01.031 12/08/2009,-35.0,21.0,-26.0,-73.0,-42.0,-122.0,-132.0,-59.0,-9.0,-21.0,-31.0,4.0,-3.0,-99.0,-9.0,20.0,39.0,-39.0,26.0,17.0,-37.0,-305.0,-145.0,-119.0,-262.0,-205.0,-162.0,-69.0,-274.0,-195.0,-344.0,-95.0,-138.0,-125.0,-138.0,-137.0,-201.0,-125.0,-5.0,117.0,-46.0,-33.0,-161.0,-1.0,-49.0,-82.0,-43.0,-28.0,-68.0,-10.0,-9.0,-35.0,-54.0,-60.0,50.0,-24.0,-2.0,5.0,-16.0,-58.0,78.0,-72.0,-68.0,-60.0,0.0
16:15:01.038 12/08/2009,-77.0,-55.0,-111.0,-148.0,-121.0,-199.0,-237.0,-117.0,-78.0,-93.0,-110.0,-63.0,-77.0,-78.0,-59.0,-42.0,-25.0,-96.0,-26.0,-21.0,-31.0,-278.0,-178.0,-185.0,-211.0,-346.0,-197.0,-136.0,-252.0,-147.0,-55.0,-122.0,-139.0,-129.0,-137.0,-166.0,-39.0,-103.0,125.0,-158.0,-5.0,-257.0,-112.0,-32.0,6.0,-126.0,17.0,20.0,-1.0,55.0,67.0,60.0,39.0,46.0,187.0,22.0,58.0,87.0,105.0,127.0,122.0,-10.0,29.0,-12.0,0.0
16:15:01.044 12/08/2009,-8.0,40.0,3.0,-16.0,11.0,-63.0,-71.0,-17.0,19.0,16.0,1.0,51.0,58.0,42.0,4.0,41.0,70.0,10.0,77.0,83.0,45.0,-224.0,-164.0,-169.0,-107.0,-142.0,-116.0,-128.0,-331.0,-86.0,-88.0,-41.0,-79.0,-50.0,-27.0,-31.0,83.0,4.0,154.0,85.0,261.0,-271.0,-181.0,-80.0,-22.0,-52.0,55.0,41.0,18.0,78.0,84.0,65.0,42.0,5.0,112.0,60.0,73.0,87.0,42.0,-49.0,120.0,-23.0,-4.0,-27.0,0.0
16:15:01.050 12/08/2009,52.0,43.0,-16.0,-62.0,-39.0,-115.0,-123.0,10.0,11.0,-20.0,-49.0,8.0,-17.0,-94.0,-18.0,-7.0,13.0,-53.0,5.0,4.0,-30.0,-414.0,-222.0,-204.0,-304.0,-245.0,-253.0,-348.0,-429.0,-160.0,-122.0,-108.0,-175.0,-199.0,-230.0,-231.0,-268.0,-388.0,31.0,-367.0,-101.0,-86.0,-193.0,1.0,-100.0,-117.0,-159.0,-91.0,-102.0,-37.0,-18.0,-23.0,-40.0,-47.0,57.0,-57.0,-27.0,3.0,18.0,-2.0,57.0,-80.0,-48.0,-70.0,0.0
16:15:01.056 12/08/2009,-160.0,-72.0,-99.0,-133.0,-93.0,-158.0,-160.0,-208.0,-105.0,-95.0,-98.0,-25.0,-17.0,-66.0,-130.0,-82.0,-37.0,-80.0,4.0,19.0,-3.0,-278.0,-212.0,-183.0,-229.0,-261.0,-158.0,-99.0,-265.0,-188.0,-213.0,-108.0,-126.0,-114.0,-107.0,-86.0,119.0,-96.0,33.0,-109.0,-172.0,8.0,-95.0,13.0,-104.0,-41.0,-93.0,-58.0,-65.0,3.0,25.0,7.0,-7.0,-22.0,101.0,-30.0,-1.0,31.0,9.0,-56.0,110.0,-40.0,-26.0,-10.0,0.0
16:15:01.063 12/08/2009,-110.0,-49.0,-75.0,-105.0,-59.0,-155.0,-213.0,-140.0,-68.0,-80.0,-82.0,-30.0,-40.0,-129.0,-73.0,-42.0,-19.0,-77.0,-2.0,-2.0,-40.0,-251.0,-171.0,-166.0,-183.0,-272.0,-220.0,-220.0,-396.0,-182.0,-115.0,-128.0,-168.0,-135.0,-101.0,-28.0,150.0,-389.0,72.0,-53.0,-2.0,-203.0,-162.0,-147.0,-44.0,-61.0,-46.0,-21.0,-45.0,21.0,47.0,42.0,32.0,19.0,114.0,-20.0,29.0,56.0,83.0,88.0,118.0,-20.0,12.0,14.0,0.0
16:15:01.069 12/08/2009,-70.0,-36.0,-55.0,-65.0,42.0,58.0,343.0,-119.0,-51.0,-55.0,-50.0,34.0,64.0,43.0,-52.0,-27.0,-8.0,-68.0,7.0,27.0,19.0,-336.0,-269.0,-242.0,-164.0,-261.0,-230.0,-142.0,-384.0,-231.0,-171.0,-180.0,-214.0,-205.0,-228.0,-225.0,-403.0,-71.0,14.0,-78.0,-122.0,-79.0,-254.0,-72.0,-74.0,-131.0,-98.0,-61.0,-100.0,-45.0,-46.0,-77.0,-102.0,-113.0,-20.0,-50.0,-31.0,-41.0,-50.0,-89.0,68.0,-84.0,-88.0,-29.0,0.0
16:15:01.075 12/08/2009,-97.0,-89.0,-135.0,-168.0,-166.0,-274.0,-407.0,-140.0,-77.0,-99.0,-126.0,-93.0,-114.0,-193.0,-86.0,-43.0,-20.0,-89.0,-27.0,-52.0,-97.0,-291.0,-224.0,-270.0,-342.0,-175.0,-148.0,-201.0,-192.0,-186.0,-61.0,-11.0,-76.0,-65.0,-48.0,6.0,32.0,-60.0,177.0,124.0,81.0,15.0,-64.0,17.0,-83.0,-106.0,-26.0,-3.0,11.0,76.0,83.0,62.0,32.0,-1.0,109.0,13.0,62.0,63.0,68.0,8.0,158.0,9.0,36.0,58.0,0.0
16:15:01.081 12/08/2009,47.0,67.0,7.0,-27.0,-10.0,-67.0,-13.0,-21.0,22.0,-10.0,-29.0,3.0,-31.0,-114.0,-33.0,-5.0,5.0,-67.0,-18.0,-32.0,-59.0,-316.0,-159.0,-154.0,-373.0,-221.0,-233.0,-179.0,-309.0,-183.0,-144.0,-100.0,-170.0,-209.0,-244.0,-271.0,-313.0,-250.0,17.0,-163.0,-87.0,-109.0,-214.0,-172.0,-95.0,-199.0,-139.0,-109.0,-130.0,-71.0,-68.0,-92.0,-121.0,-133.0,-11.0,-84.0,-56.0,-70.0,-53.0,-83.0,34.0,-110.0,-85.0,-53.0,0.0
16:15:01.088 12/08/2009,-116.0,-93.0,-133.0,-157.0,-125.0,-131.0,43.0,-166.0,-87.0,-103.0,-111.0,-51.0,-29.0,-45.0,-73.0,-51.0,-31.0,-95.0,-10.0,4.0,-1.0,-326.0,-134.0,-118.0,-163.0,-233.0,-160.0,-93.0,-181.0,-119.0,-186.0,-76.0,-107.0,-90.0,-76.0,-35.0,-100.0,-174.0,120.0,-73.0,-3.0,-61.0,-131.0,-28.0,30.0,-40.0,43.0,28.0,-3.0,49.0,54.0,39.0,27.0,7.0,115.0,26.0,36.0,20.0,44.0,6.0,90.0,-51.0,-21.0,-67.0,0.0
16:15:01.094 12/08/2009,-33.0,-6.0,-58.0,-83.0,-55.0,-105.0,54.0,-102.0,-45.0,-59.0,-82.0,-46.0,-51.0,-67.0,-62.0,-45.0,-26.0,-93.0,-37.0,-30.0,-54.0,-217.0,-167.0,-103.0,-132.0,-263.0,-206.0,-121.0,-199.0,-195.0,-223.0,-135.0,-163.0,-153.0,-153.0,-148.0,112.0,-2.0,35.0,249.0,18.0,-1.0,-163.0,-75.0,-101.0,-80.0,-118.0,-70.0,-72.0,12.0,30.0,17.0,5.0,10.0,131.0,-36.0,3.0,18.0,45.0,29.0,102.0,-53.0,-33.0,-38.0,0.0
16:15:01.100 12/08/2009,-91.0,-22.0,-43.0,-48.0,11.0,-10.0,-5.0,-127.0,-46.0,-36.0,-35.0,35.0,48.0,54.0,-84.0,-39.0,0.0,-52.0,21.0,44.0,34.0,-356.0,-267.0,-235.0,-267.0,-271.0,-196.0,-294.0,-353.0,-300.0,-215.0,-144.0,-162.0,-136.0,-107.0,-100.0,-210.0,-367.0,15.0,-285.0,-96.0,-67.0,-260.0,-49.0,-88.0,-35.0,-67.0,-50.0,-70.0,-3.0,7.0,0.0,-20.0,-20.0,117.0,-27.0,6.0,6.0,11.0,-33.0,108.0,-40.0,-33.0,37.0,0.0
16:15:01.106 12/08/2009,-67.0,-18.0,-63.0,-89.0,-89.0,-175.0,-277.0,-124.0,-33.0,-41.0,-55.0,-20.0,-44.0,-109.0,-44.0,-18.0,13.0,-55.0,5.0,-1.0,-45.0,-415.0,-285.0,-228.0,-288.0,-317.0,-234.0,-268.0,-323.0,-230.0,-197.0,-121.0,-171.0,-165.0,-156.0,-146.0,-3.0,-154.0,-15.0,-29.0,-38.0,-158.0,-174.0,-3.0,-53.0,-162.0,-50.0,-72.0,-88.0,-26.0,-15.0,-36.0,-59.0,-58.0,62.0,-59.0,-35.0,-42.0,-30.0,-45.0,58.0,-97.0,-80.0,-86.0,0.0
16:15:01.113 12/08/2009,-145.0,-70.0,-105.0,-120.0,-96.0,-149.0,-185.0,-157.0,-92.0,-97.0,-105.0,-53.0,-46.0,-81.0,-112.0,-82.0,-50.0,-103.0,-23.0,-4.0,-12.0,-246.0,-151.0,-121.0,-214.0,-233.0,-222.0,-187.0,-279.0,-161.0,-125.0,-139.0,-174.0,-154.0,-142.0,-127.0,-146.0,-190.0,39.0,56.0,-67.0,-67.0,-216.0,-9.0,-136.0,-55.0,-145.0,-80.0,-107.0,-33.0,-22.0,-27.0,-36.0,-27.0,79.0,-59.0,-39.0,-41.0,5.0,16.0,59.0,-99.0,-69.0,-62.0,0.0
16:15:01.119 12/08/2009,-161.0,-103.0,-143.0,-158.0,-131.0,-182.0,-208.0,-192.0,-134.0,-140.0,-152.0,-89.0,-106.0,-140.0,-173.0,-133.0,-107.0,-162.0,-83.0,-81.0,-108.0,-299.0,-241.0,-239.0,-162.0,-376.0,-298.0,-239.0,-284.0,-246.0,-221.0,-192.0,-248.0,-231.0,-226.0,-207.0,14.0,-176.0,6.0,-166.0,-88.0,-265.0,-257.0,-55.0,-150.0,-137.0,-167.0,-136.0,-158.0,-82.0,-66.0,-77.0,-76.0,-58.0,87.0,-112.0,-82.0,-75.0,-37.0,-49.0,2.0,-135.0,-103.0,-104.0,0.0
16:15:01.125 12/08/2009,-148.0,-104.0,-131.0,-147.0,-115.0,-156.0,-190.0,-139.0,-97.0,-107.0,-118.0,-59.0,-50.0,-70.0,-71.0,-58.0,-38.0,-97.0,-15.0,-4.0,-17.0,-335.0,-201.0,-181.0,-276.0,-237.0,-210.0,-64.0,-323.0,-176.0,-96.0,-69.0,-124.0,-113.0,-107.0,-88.0,-35.0,-91.0,139.0,-66.0,97.0,-38.0,-106.0,-13.0,-29.0,-37.0,19.0,48.0,7.0,64.0,64.0,62.0,37.0,23.0,152.0,85.0,74.0,58.0,70.0,42.0,165.0,3.0,18.0,23.0,0.0
16:15:01.131 12/08/2009,11.0,46.0,-5.0,-24.0,2.0,-51.0,-49.0,2.0,25.0,-9.0,-14.0,39.0,15.0,-44.0,7.0,13.0,24.0,-41.0,31.0,24.0,-23.0,-336.0,-213.0,-167.0,-293.0,-197.0,-174.0,-210.0,-187.0,-222.0,-95.0,-90.0,-133.0,-114.0,-110.0,-56.0,37.0,-234.0,95.0,-172.0,14.0,-64.0,-277.0,-117.0,-112.0,-117.0,-97.0,-85.0,-109.0,-37.0,-24.0,-33.0,-54.0,-72.0,25.0,-146.0,-76.0,-62.0,-42.0,-86.0,11.0,-129.0,-96.0,-108.0,0.0
16:15:01.138 12/08/2009,-29.0,-28.0,-83.0,-83.0,-41.0,-53.0,-30.0,-113.0,-65.0,-81.0,-79.0,-27.0,-33.0,-96.0,-119.0,-70.0,-39.0,-93.0,-21.0,-21.0,-58.0,-353.0,-248.0,-206.0,-234.0,-238.0,-206.0,-190.0,-233.0,-132.0,-168.0,-78.0,-139.0,-131.0,-139.0,-79.0,-73.0,-61.0,77.0,-30.0,-120.0,-67.0,-119.0,10.0,-80.0,-100.0,-81.0,-34.0,-59.0,20.0,25.0,21.0,4.0,-18.0,60.0,-9.0,22.0,16.0,50.0,23.0,138.0,-13.0,16.0,22.0,0.0
16:15:01.144 12/08/2009,-69.0,-5.0,-36.0,-53.0,-42.0,-133.0,-229.0,-143.0,-34.0,-30.0,-18.0,15.0,5.0,-33.0,-62.0,-6.0,27.0,-21.0,50.0,60.0,31.0,-258.0,-153.0,-244.0,-196.0,-164.0,-120.0,-125.0,-185.0,-190.0,-195.0,-45.0,-72.0,-54.0,-68.0,-48.0,-179.0,-134.0,66.0,-30.0,-114.0,-86.0,-74.0,-48.0,-24.0,-35.0,6.0,5.0,-39.0,36.0,47.0,40.0,37.0,29.0,154.0,-44.0,-2.0,7.0,54.0,45.0,53.0,-70.0,-26.0,-59.0,0.0
16:15:01.150 12/08/2009,-6.0,4.0,-51.0,-62.0,-34.0,-75.0,-64.0,-125.0,-46.0,-63.0,-48.0,-6.0,3.0,1.0,-92.0,-64.0,-35.0,-84.0,-12.0,7.0,-12.0,-294.0,-212.0,-171.0,-248.0,-260.0,-221.0,-175.0,-362.0,-90.0,-167.0,-89.0,-142.0,-123.0,-91.0,-22.0,116.0,-207.0,77.0,59.0,-11.0,-121.0,-220.0,-136.0,-89.0,-119.0,-64.0,-40.0,-73.0,4.0,26.0,14.0,-2.0,-18.0,56.0,-45.0,8.0,16.0,28.0,-31.0,114.0,-37.0,-25.0,-11.0,0.0
16:15:01.156 12/08/2009,-80.0,7.0,-10.0,-4.0,59.0,51.0,133.0,-23.0,16.0,-5.0,7.0,65.0,70.0,20.0,-1.0,20.0,37.0,-19.0,61.0,60.0,18.0,-305.0,-115.0,-59.0,-191.0,-188.0,-114.0,-98.0,-243.0,-170.0,-101.0,-67.0,-89.0,-60.0,-44.0,-14.0,-107.0,-60.0,72.0,-105.0,-80.0,-172.0,-79.0,2.0,-109.0,-60.0,-86.0,-36.0,-56.0,13.0,31.0,14.0,3.0,-12.0,89.0,-3.0,8.0,-1.0,17.0,7.0,34.0,-86.0,-59.0,-66.0,0.0
16:15:01.163 12/08/2009,-62.0,-6.0,-51.0,-65.0,-55.0,-115.0,-77.0,-128.0,-23.0,-45.0,-50.0,-15.0,-40.0,-127.0,-87.0,-29.0,-2.0,-62.0,8.0,9.0,-33.0,-210.0,-144.0,-163.0,-125.0,-199.0,-124.0,-80.0,-257.0,-85.0,-22.0,-57.0,-78.0,-54.0,-36.0,-36.0,-154.0,-95.0,101.0,-23.0,63.0,-26.0,-223.0,36.0,-52.0,-77.0,-61.0,-21.0,-55.0,8.0,20.0,14.0,-1.0,5.0,122.0,-12.0,-5.0,-15.0,4.0,-44.0,61.0,-84.0,-70.0,-61.0,0.0
16:15:01.169 12/08/2009,-69.0,-31.0,-70.0,-84.0,-73.0,-135.0,-86.0,-130.0,-66.0,-84.0,-87.0,-43.0,-65.0,-71.0,-98.0,-84.0,-62.0,-118.0,-50.0,-43.0,-49.0,-306.0,-258.0,-187.0,-295.0,-438.0,-222.0,-341.0,-242.0,-277.0,-359.0,-119.0,-166.0,-178.0,-212.0,-240.0,-243.0,-342.0,-9.0,-163.0,5.0,-192.0,-178.0,-46.0,-98.0,-159.0,-94.0,-98.0,-127.0,-69.0,-60.0,-67.0,-82.0,-87.0,2.0,-137.0,-68.0,-54.0,-30.0,-33.0,43.0,-98.0,-74.0,-56.0,0.0
16:15:01.175 12/08/2009,-83.0,-26.0,-78.0,-113.0,-117.0,-188.0,-238.0,-45.0,-25.0,-59.0,-69.0,-48.0,-56.0,-79.0,9.0,-3.0,2.0,-61.0,13.0,25.0,43.0,-213.0,-140.0,-142.0,-165.0,-220.0,-194.0,-102.0,-210.0,-134.0,-86.0,-69.0,-142.0,-134.0,-149.0,-165.0,-130.0,-122.0,125.0,-17.0,43.0,132.0,-132.0,-69.0,-83.0,162.0,-90.0,-26.0,-45.0,23.0,29.0,26.0,17.0,36.0,267.0,6.0,21.0,12.0,30.0,-23.0,123.0,-32.0,-22.0,-9.0,0.0
16:15:01.181 12/08/2009,-105.0,-38.0,-83.0,-103.0,-81.0,-111.0,-16.0,-128.0,-61.0,-73.0,-69.0,-20.0,-9.0,42.0,-91.0,-61.0,-32.0,-76.0,2.0,15.0,-12.0,-280.0,-161.0,-142.0,-296.0,-228.0,-210.0,-216.0,-167.0,-244.0,-97.0,-118.0,-169.0,-161.0,-163.0,-145.0,-5.0,-144.0,41.0,-32.0,-237.0,-115.0,-114.0,-79.0,-99.0,-232.0,-76.0,-48.0,-98.0,-44.0,-35.0,-47.0,-80.0,-119.0,-87.0,-45.0,-23.0,-40.0,-25.0,-24.0,67.0,-80.0,-58.0,-22.0,0.0
16:15:01.188 12/08/2009,-115.0,-78.0,-122.0,-155.0,-156.0,-224.0,-270.0,-175.0,-101.0,-114.0,-120.0,-103.0,-149.0,-260.0,-98.0,-80.0,-66.0,-133.0,-79.0,-98.0,-162.0,-320.0,-169.0,-162.0,-218.0,-263.0,-267.0,-318.0,-260.0,-247.0,-161.0,-118.0,-173.0,-180.0,-169.0,-149.0,-110.0,-148.0,59.0,-68.0,-64.0,-60.0,-80.0,-12.0,-13.0,-109.0,-71.0,-11.0,-58.0,-9.0,1.0,-11.0,-36.0,-43.0,60.0,34.0,16.0,-1.0,22.0,-2.0,101.0,-47.0,-26.0,1.0,0.0
16:15:01.194 12/08/2009,-2.0,7.0,-30.0,-52.0,-23.0,-68.0,-10.0,-83.0,-8.0,-30.0,-23.0,10.0,13.0,-21.0,-36.0,-12.0,7.0,-51.0,25.0,21.0,-30.0,-200.0,-96.0,-53.0,-152.0,-149.0,-154.0,-130.0,-98.0,-51.0,-148.0,-82.0,-111.0,-86.0,-71.0,-25.0,-33.0,-104.0,89.0,-121.0,7.0,-166.0,-116.0,-37.0,-124.0,-152.0,-96.0,-47.0,-74.0,-11.0,6.0,-2.0,-8.0,-10.0,111.0,-80.0,-32.0,-21.0,33.0,59.0,71.0,-68.0,-41.0,-16.0,0.0
16:15:01.200 12/08/2009,-63.0,-14.0,-55.0,-70.0,-27.0,-43.0,51.0,-87.0,-43.0,-67.0,-61.0,-6.0,-2.0,-8.0,-99.0,-72.0,-46.0,-98.0,-18.0,-20.0,-53.0,-258.0,-182.0,-197.0,-263.0,-217.0,-211.0,-115.0,-240.0,-108.0,-71.0,-125.0,-170.0,-149.0,-139.0,-84.0,-246.0,-222.0,89.0,-152.0,-63.0,-171.0,-225.0,-6.0,-120.0,-119.0,-121.0,-82.0,-109.0,-59.0,-48.0,-59.0,-85.0,-90.0,68.0,-70.0,-40.0,-64.0,-41.0,-119.0,64.0,-76.0,-70.0,-22.0,0.0
16:15:01.206 12/08/2009,-68.0,-10.0,-45.0,-67.0,-49.0,-91.0,-71.0,-117.0,-27.0,-40.0,-46.0,-10.0,-22.0,-71.0,-56.0,-17.0,-1.0,-61.0,15.0,-10.0,-46.0,-256.0,-96.0,-83.0,-95.0,-114.0,-120.0,-19.0,-86.0,-8.0,-18.0,31.0,-55.0,-58.0,-62.0,-63.0,68.0,134.0,185.0,77.0,21.0,-144.0,-110.0,1.0,-15.0,-98.0,45.0,20.0,-3.0,47.0,53.0,26.0,-6.0,-25.0,67.0,-17.0,33.0,7.0,34.0,0.0,100.0,-39.0,-28.0,-42.0,0.0
16:15:01.213 12/08/2009,-32.0,43.0,9.0,-23.0,-22.0,-96.0,-97.0,-39.0,28.0,6.0,-4.0,25.0,5.0,-20.0,6.0,18.0,43.0,-15.0,48.0,30.0,-12.0,-208.0,-126.0,-148.0,-6.0,-215.0,-136.0,-163.0,-345.0,-102.0,-112.0,-56.0,-86.0,-63.0,-39.0,-12.0,200.0,-189.0,135.0,39.0,-4.0,-277.0,-150.0,-40.0,-50.0,-192.0,-39.0,-41.0,-54.0,16.0,30.0,15.0,-16.0,-32.0,36.0,-77.0,-24.0,-23.0,17.0,-4.0,55.0,-78.0,-58.0,-55.0,0.0
16:15:01.219 12/08/2009,-34.0,0.0,-37.0,-57.0,-50.0,-103.0,-20.0,-107.0,-23.0,-39.0,-43.0,-10.0,-36.0,-77.0,-87.0,-54.0,-15.0,-62.0,-5.0,-24.0,-61.0,-257.0,-161.0,-38.0,-237.0,-238.0,-199.0,-274.0,-83.0,-138.0,-91.0,-71.0,-147.0,-140.0,-144.0,-134.0,-113.0,-81.0,134.0,-94.0,185.0,4.0,-241.0,-46.0,-115.0,-30.0,-130.0,-52.0,-46.0,35.0,40.0,27.0,-3.0,-4.0,115.0,-3.0,25.0,26.0,62.0,19.0,134.0,-8.0,3.0,10.0,0.0
16:15:01.225 12/08/2009,89.0,70.0,10.0,-25.0,-39.0,-89.0,21.0,27.0,55.0,28.0,5.0,37.0,21.0,-39.0,19.0,49.0,69.0,13.0,79.0,73.0,34.0,-229.0,-137.0,-98.0,-184.0,-196.0,-104.0,-58.0,-148.0,-136.0,18.0,12.0,-22.0,-31.0,-27.0,-13.0,-20.0,-307.0,87.0,-150.0,-139.0,-1.0,-58.0,-41.0,-8.0,3.0,39.0,26.0,18.0,101.0,106.0,101.0,77.0,61.0,177.0,45.0,83.0,86.0,111.0,57.0,167.0,37.0,61.0,55.0,0.0
16:15:01.231 12/08/2009,-79.0,30.0,15.0,0.0,22.0,-3.0,46.0,-107.0,4.0,-3.0,-3.0,45.0,18.0,-24.0,-36.0,-4.0,28.0,-18.0,35.0,40.0,2.0,-295.0,-227.0,-219.0,-188.0,-260.0,-147.0,-97.0,-216.0,-218.0,-265.0,-87.0,-132.0,-117.0,-129.0,-153.0,-122.0,-17.0,56.0,-68.0,35.0,3.0,-266.0,-20.0,-84.0,-69.0,-93.0,-55.0,-63.0,7.0,10.0,2.0,-15.0,-17.0,81.0,-45.0,5.0,12.0,48.0,11.0,98.0,-31.0,-13.0,-22.0,0.0
16:15:01.238 12/08/2009,-36.0,-36.0,-83.0,-110.0,-128.0,-202.0,-169.0,-109.0,-49.0,-72.0,-96.0,-48.0,-71.0,-118.0,-50.0,-38.0,-24.0,-72.0,-12.0,-11.0,-52.0,-300.0,-156.0,-131.0,-259.0,-279.0,-238.0,-177.0,-222.0,-229.0,-313.0,-130.0,-180.0,-179.0,-196.0,-198.0,-90.0,-9.0,-73.0,75.0,-168.0,-49.0,-77.0,13.0,-17.0,-70.0,-26.0,-6.0,-18.0,50.0,37.0,40.0,23.0,14.0,107.0,43.0,68.0,63.0,92.0,70.0,155.0,14.0,27.0,23.0,0.0
16:15:01.244 12/08/2009,-19.0,2.0,-33.0,-58.0,-53.0,-100.0,-61.0,-67.0,-1.0,-11.0,-30.0,24.0,17.0,-24.0,-7.0,29.0,45.0,2.0,76.0,93.0,54.0,-229.0,-76.0,-52.0,-204.0,-182.0,-156.0,-181.0,-156.0,-18.0,-82.0,-16.0,-73.0,-75.0,-73.0,-78.0,-98.0,-180.0,161.0,-130.0,24.0,-28.0,-33.0,-39.0,37.0,-5.0,86.0,63.0,40.0,114.0,107.0,113.0,103.0,99.0,229.0,26.0,104.0,110.0,156.0,152.0,159.0,36.0,62.0,16.0,0.0
16:15:01.250 12/08/2009,-21.0,45.0,14.0,4.0,37.0,28.0,149.0,-49.0,28.0,18.0,24.0,91.0,81.0,49.0,5.0,30.0,46.0,7.0,80.0,96.0,44.0,-202.0,-97.0,-118.0,-168.0,-158.0,-150.0,-40.0,-227.0,-99.0,-12.0,-79.0,-117.0,-102.0,-99.0,-91.0,27.0,-61.0,57.0,16.0,-63.0,-58.0,-126.0,-31.0,-21.0,-44.0,94.0,40.0,-9.0,57.0,40.0,36.0,23.0,10.0,137.0,51.0,77.0,50.0,55.0,-10.0,122.0,-5.0,6.0,37.0,0.0
16:15:01.256 12/08/2009,-31.0,-5.0,-40.0,-51.0,-52.0,-129.0,-96.0,-68.0,0.0,-13.0,-17.0,40.0,30.0,52.0,-17.0,25.0,45.0,5.0,81.0,101.0,78.0,-281.0,-109.0,-94.0,-174.0,-137.0,-136.0,-117.0,-26.0,-97.0,-41.0,-17.0,-78.0,-45.0,-18.0,35.0,-8.0,218.0,105.0,114.0,83.0,-172.0,-122.0,13.0,-44.0,22.0,-66.0,10.0,17.0,102.0,111.0,99.0,87.0,41.0,117.0,8.0,73.0,83.0,91.0,23.0,185.0,36.0,35.0,50.0,0.0
16:15:01.263 12/08/2009,20.0,64.0,26.0,7.0,5.0,-60.0,-68.0,23.0,53.0,26.0,7.0,42.0,15.0,-13.0,5.0,43.0,51.0,-4.0,49.0,38.0,-24.0,-158.0,-146.0,-122.0,-24.0,-257.0,-141.0,-335.0,-300.0,-23.0,37.0,8.0,-69.0,-77.0,-91.0,-95.0,-337.0,-328.0,241.0,-214.0,366.0,-147.0,-212.0,90.0,-87.0,-119.0,16.0,46.0,-2.0,60.0,50.0,39.0,18.0,6.0,146.0,31.0,45.0,24.0,61.0,27.0,83.0,-59.0,-27.0,-98.0,0.0
16:15:01.269 12/08/2009,39.0,50.0,-5.0,-16.0,-5.0,-54.0,-46.0,-36.0,8.0,-22.0,-19.0,39.0,32.0,41.0,-90.0,-43.0,-10.0,-51.0,26.0,45.0,31.0,-261.0,-150.0,-193.0,-203.0,-219.0,-180.0,-285.0,-158.0,-277.0,-111.0,-112.0,-164.0,-127.0,-108.0,-58.0,-153.0,6.0,30.0,-101.0,-307.0,-327.0,-177.0,-4.0,-136.0,-135.0,-182.0,-117.0,-122.0,-28.0,-20.0,-21.0,-27.0,-54.0,49.0,-112.0,-46.0,-21.0,24.0,25.0,63.0,-71.0,-37.0,-63.0,0.0
16:15:01.275 12/08/2009,-87.0,-9.0,-37.0,-53.0,-54.0,-100.0,-83.0,-127.0,-8.0,-26.0,-26.0,16.0,-1.0,-26.0,-70.0,-2.0,32.0,-15.0,49.0,43.0,-8.0,-212.0,-152.0,-106.0,-290.0,-155.0,-98.0,-51.0,-168.0,-119.0,-142.0,-28.0,-46.0,-55.0,-96.0,-135.0,-86.0,-22.0,211.0,19.0,111.0,239.0,-90.0,40.0,-4.0,-30.0,1.0,54.0,29.0,91.0,65.0,45.0,28.0,-22.0,71.0,65.0,91.0,45.0,53.0,-13.0,101.0,-22.0,2.0,-16.0,0.0
16:15:01.281 12/08/2009,18.0,62.0,8.0,-16.0,-12.0,-52.0,70.0,5.0,46.0,7.0,-10.0,39.0,29.0,48.0,23.0,29.0,36.0,-30.0,30.0,26.0,-10.0,-210.0,-81.0,-168.0,-151.0,-215.0,-166.0,-122.0,-192.0,-106.0,-158.0,-56.0,-133.0,-110.0,-83.0,-69.0,137.0,66.0,107.0,-4.0,71.0,-71.0,-227.0,-90.0,-53.0,-70.0,-48.0,-33.0,-62.0,6.0,-11.0,-27.0,-46.0,-70.0,67.0,-70.0,-12.0,-10.0,8.0,-50.0,116.0,-41.0,-35.0,-19.0,0.0
16:15:01.288 12/08/2009,5.0,1.0,-70.0,-106.0,-124.0,-193.0,-168.0,-96.0,-26.0,-61.0,-84.0,-53.0,-100.0,-191.0,-104.0,-44.0,-18.0,-81.0,-18.0,-33.0,-63.0,-215.0,-161.0,-139.0,-114.0,-305.0,-233.0,-182.0,-308.0,-105.0,-238.0,-86.0,-163.0,-158.0,-173.0,-201.0,-238.0,-247.0,88.0,-63.0,-129.0,-16.0,-118.0,26.0,-88.0,-33.0,-57.0,-20.0,-38.0,41.0,27.0,26.0,4.0,-10.0,126.0,22.0,45.0,37.0,62.0,10.0,126.0,-15.0,5.0,-21.0,0.0
16:15:01.294 12/08/2009,-78.0,-8.0,-33.0,-53.0,-46.0,-93.0,-23.0,-90.0,-3.0,-22.0,-32.0,10.0,-4.0,-30.0,-46.0,6.0,21.0,-31.0,32.0,22.0,-14.0,-168.0,-66.0,-48.0,-108.0,-179.0,-175.0,-138.0,-223.0,-152.0,-140.0,-107.0,-143.0,-118.0,-111.0,-105.0,-56.0,-31.0,119.0,-40.0,-1.0,-139.0,-111.0,12.0,-79.0,-190.0,-58.0,-28.0,-45.0,22.0,9.0,3.0,-10.0,-34.0,56.0,-27.0,16.0,6.0,33.0,3.0,102.0,-42.0,-28.0,-33.0,0.0
16:15:01.300 12/08/2009,-32.0,-2.0,-40.0,-60.0,-44.0,-64.0,206.0,-106.0,-23.0,-39.0,-43.0,19.0,21.0,42.0,-95.0,-42.0,-8.0,-52.0,22.0,20.0,-15.0,-163.0,-108.0,-56.0,-83.0,-189.0,-190.0,-159.0,-164.0,-74.0,-69.0,-73.0,-130.0,-121.0,-116.0,-91.0,-4.0,-111.0,11.0,3.0,-103.0,-70.0,-118.0,-145.0,-61.0,-69.0,-32.0,-40.0,-61.0,1.0,11.0,2.0,-5.0,-8.0,134.0,-45.0,17.0,-1.0,44.0,23.0,105.0,-53.0,-44.0,-48.0,0.0
16:15:01.306 12/08/2009,-37.0,-2.0,-33.0,-64.0,-58.0,-125.0,-97.0,-105.0,-3.0,-19.0,-33.0,13.0,-17.0,-8.0,-41.0,10.0,34.0,-31.0,36.0,39.0,31.0,-245.0,-70.0,-21.0,-186.0,-147.0,-135.0,-92.0,39.0,-89.0,-29.0,-17.0,-78.0,-73.0,-78.0,-60.0,102.0,-102.0,161.0,-58.0,5.0,-88.0,-89.0,72.0,-5.0,3.0,49.0,29.0,11.0,69.0,71.0,49.0,39.0,39.0,214.0,34.0,70.0,41.0,82.0,69.0,147.0,-10.0,-4.0,6.0,0.0
16:15:01.313 12/08/2009,-4.0,51.0,5.0,-18.0,-10.0,-49.0,-24.0,-40.0,32.0,4.0,-24.0,12.0,-15.0,-109.0,-17.0,22.0,36.0,-33.0,15.0,3.0,-23.0,-209.0,-186.0,-149.0,-155.0,-177.0,-157.0,-200.0,-204.0,-185.0,-82.0,-75.0,-120.0,-123.0,-150.0,-145.0,-136.0,-72.0,110.0,11.0,158.0,-48.0,-223.0,35.0,20.0,-106.0,-1.0,-15.0,-43.0,2.0,-6.0,-32.0,-52.0,-72.0,79.0,-22.0,16.0,-21.0,-12.0,-83.0,95.0,-53.0,-44.0,8.0,0.0
16:15:01.319 12/08/2009,-37.0,9.0,-47.0,-76.0,-113.0,-197.0,-191.0,-77.0,-11.0,-45.0,-68.0,-39.0,-73.0,-87.0,-79.0,-35.0,-18.0,-72.0,-23.0,-27.0,-44.0,-263.0,-172.0,-98.0,-202.0,-253.0,-185.0,-254.0,-179.0,-173.0,-152.0,-50.0,-117.0,-112.0,-110.0,-103.0,-179.0,-118.0,131.0,-98.0,52.0,-143.0,-227.0,-32.0,-92.0,-110.0,-84.0,-32.0,-58.0,2.0,-2.0,-18.0,-25.0,-27.0,71.0,-30.0,11.0,-2.0,31.0,1.0,94.0,-60.0,-34.0,-54.0,0.0
16:15:01.325 12/08/2009,-20.0,24.0,-18.0,-33.0,-33.0,-83.0,0.0,-74.0,4.0,-15.0,-17.0,15.0,10.0,3.0,-38.0,6.0,24.0,-26.0,42.0,46.0,24.0,-213.0,-53.0,14.0,-82.0,-200.0,-107.0,-39.0,-52.0,-114.0,-75.0,-29.0,-41.0,-40.0,-62.0,-72.0,-16.0,56.0,102.0,-26.0,66.0,-74.0,-123.0,15.0,-68.0,-13.0,7.0,20.0,4.0,63.0,69.0,59.0,59.0,56.0,155.0,38.0,74.0,56.0,90.0,63.0,155.0,9.0,31.0,39.0,0.0
16:15:01.331 12/08/2009,7.0,57.0,25.0,15.0,23.0,-3.0,184.0,-70.0,22.0,5.0,15.0,60.0,39.0,2.0,-55.0,-4.0,28.0,-18.0,53.0,38.0,-21.0,-177.0,-73.0,-21.0,-68.0,-182.0,-146.0,-139.0,-96.0,-62.0,-42.0,-52.0,-122.0,-96.0,-102.0,-111.0,60.0,-69.0,4.0,-41.0,-100.0,5.0,-176.0,0.0,-81.0,-39.0,-96.0,-41.0,-76.0,-5.0,6.0,-1.0,-8.0,-8.0,68.0,-56.0,-8.0,0.0,57.0,80.0,78.0,-60.0,-17.0,-62.0,0.0
16:15:01.338 12/08/2009,-63.0,-13.0,-53.0,-56.0,-46.0,-90.0,-34.0,-147.0,-57.0,-50.0,-37.0,15.0,-15.0,-62.0,-96.0,-42.0,-7.0,-43.0,32.0,15.0,-30.0,-141.0,-50.0,-17.0,7.0,-225.0,-164.0,-145.0,-266.0,-195.0,-254.0,-62.0,-97.0,-71.0,-63.0,-56.0,-115.0,-35.0,62.0,-44.0,-32.0,-138.0,-173.0,-17.0,-3.0,-65.0,1.0,23.0,-8.0,60.0,71.0,52.0,41.0,3.0,81.0,9.0,74.0,62.0,64.0,-22.0,153.0,7.0,22.0,-6.0,0.0
16:15:01.344 12/08/2009,-20.0,82.0,55.0,51.0,64.0,20.0,-3.0,-46.0,67.0,67.0,69.0,105.0,87.0,62.0,24.0,80.0,104.0,61.0,117.0,107.0,56.0,-105.0,-4.0,23.0,-25.0,-134.0,-77.0,-115.0,-53.0,-51.0,-296.0,47.0,-38.0,-15.0,-7.0,2.0,33.0,-79.0,152.0,-40.0,10.0,58.0,-99.0,-27.0,43.0,-38.0,148.0,86.0,53.0,105.0,101.0,85.0,79.0,49.0,138.0,50.0,102.0,78.0,115.0,109.0,150.0,10.0,32.0,3.0,0.0
16:15:01.350 12/08/2009,20.0,77.0,26.0,5.0,-10.0,-75.0,-95.0,-42.0,40.0,29.0,14.0,53.0,29.0,51.0,13.0,41.0,58.0,-2.0,68.0,54.0,15.0,-239.0,-82.0,-30.0,-163.0,-150.0,-127.0,-91.0,-73.0,-91.0,-41.0,-27.0,-79.0,-69.0,-78.0,-83.0,-30.0,-30.0,79.0,100.0,56.0,-213.0,-209.0,-56.0,-70.0,-143.0,-79.0,-27.0,-43.0,28.0,24.0,8.0,2.0,-30.0,60.0,-7.0,30.0,23.0,28.0,-55.0,115.0,-27.0,-13.0,-15.0,0.0
16:15:01.356 12/08/2009,-63.0,21.0,-8.0,-17.0,-6.0,-43.0,-18.0,-97.0,-21.0,-7.0,0.0,44.0,36.0,20.0,-58.0,-9.0,34.0,-12.0,70.0,75.0,63.0,-201.0,-100.0,-24.0,-96.0,-195.0,-85.0,-162.0,-111.0,-115.0,-31.0,-20.0,-50.0,-40.0,-53.0,-30.0,-206.0,-145.0,74.0,187.0,118.0,95.0,-126.0,94.0,-46.0,36.0,-12.0,25.0,17.0,99.0,100.0,96.0,88.0,72.0,185.0,46.0,108.0,106.0,128.0,84.0,196.0,50.0,67.0,54.0,0.0
16:15:01.363 12/08/2009,9.0,74.0,42.0,31.0,36.0,2.0,88.0,24.0,56.0,48.0,33.0,76.0,69.0,5.0,42.0,64.0,83.0,19.0,82.0,73.0,21.0,-103.0,-29.0,35.0,26.0,-148.0,-93.0,-43.0,-20.0,-134.0,-21.0,-36.0,-87.0,-62.0,-64.0,-53.0,-184.0,-178.0,120.0,-175.0,33.0,-178.0,-127.0,-55.0,16.0,-79.0,43.0,45.0,-21.0,35.0,22.0,-1.0,-6.0,-27.0,74.0,26.0,38.0,14.0,20.0,-30.0,98.0,-48.0,-49.0,-38.0,0.0
16:15:01.369 12/08/2009,-42.0,-28.0,-80.0,-102.0,-102.0,-152.0,-93.0,-122.0,-53.0,-72.0,-85.0,-36.0,-55.0,-59.0,-61.0,-40.0,-26.0,-77.0,-2.0,1.0,-7.0,-219.0,-165.0,-238.0,-272.0,-199.0,-149.0,-174.0,-210.0,-223.0,-127.0,-51.0,-110.0,-88.0,-87.0,-109.0,155.0,-124.0,62.0,-147.0,91.0,-76.0,-94.0,-31.0,18.0,27.0,-23.0,8.0,-20.0,55.0,61.0,62.0,70.0,72.0,222.0,0.0,69.0,67.0,118.0,102.0,170.0,20.0,43.0,40.0,0.0
16:15:01.375 12/08/2009,70.0,53.0,4.0,-16.0,-15.0,-74.0,-94.0,-33.0,34.0,21.0,5.0,34.0,23.0,27.0,12.0,56.0,76.0,15.0,77.0,86.0,72.0,-139.0,10.0,64.0,5.0,-56.0,-106.0,-111.0,-27.0,40.0,1.0,40.0,-41.0,-46.0,-54.0,-43.0,-20.0,140.0,152.0,135.0,189.0,-8.0,-147.0,53.0,31.0,-49.0,41.0,88.0,54.0,122.0,114.0,98.0,98.0,75.0,213.0,89.0,125.0,107.0,124.0,92.0,195.0,45.0,56.0,53.0,0.0
16:15:01.381 12/08/2009,98.0,108.0,41.0,10.0,4.0,-37.0,-37.0,5.0,73.0,47.0,25.0,62.0,50.0,63.0,25.0,53.0,69.0,14.0,75.0,72.0,41.0,-179.0,-44.0,12.0,-69.0,-202.0,-137.0,-130.0,-89.0,-130.0,16.0,17.0,-80.0,-89.0,-107.0,-105.0,-61.0,-81.0,80.0,-85.0,-55.0,-111.0,-81.0,12.0,-61.0,-61.0,-8.0,-6.0,-39.0,34.0,22.0,8.0,10.0,-13.0,83.0,-21.0,25.0,10.0,35.0,-7.0,76.0,-66.0,-42.0,-90.0,0.0
16:15:01.388 12/08/2009,-42.0,7.0,-41.0,-55.0,-58.0,-101.0,-76.0,-147.0,-34.0,-38.0,-56.0,-14.0,-34.0,-78.0,-84.0,-43.0,-12.0,-58.0,-3.0,-18.0,-56.0,-130.0,-24.0,45.0,-129.0,-205.0,-126.0,-34.0,-79.0,-123.0,-198.0,-49.0,-108.0,-95.0,-119.0,-138.0,-137.0,-70.0,146.0,-68.0,43.0,-89.0,-124.0,64.0,5.0,-70.0,-4.0,5.0,-21.0,49.0,40.0,33.0,22.0,0.0,115.0,13.0,55.0,45.0,61.0,-13.0,103.0,-23.0,-2.0,-9.0,0.0
16:15:01.394 12/08/2009,61.0,97.0,58.0,42.0,49.0,25.0,167.0,6.0,89.0,77.0,72.0,107.0,120.0,119.0,76.0,99.0,122.0,74.0,137.0,129.0,98.0,-77.0,76.0,72.0,128.0,-127.0,-33.0,107.0,25.0,-78.0,-111.0,33.0,-1.0,28.0,62.0,81.0,430.0,-20.0,89.0,57.0,-2.0,30.0,-92.0,-29.0,45.0,-1.0,48.0,30.0,11.0,90.0,89.0,75.0,67.0,43.0,140.0,12.0,66.0,65.0,107.0,97.0,149.0,15.0,43.0,40.0,0.0
16:15:01.400 12/08/2009,-22.0,37.0,-4.0,-22.0,-32.0,-98.0,-103.0,-136.0,-17.0,-13.0,-13.0,6.0,-33.0,-62.0,-88.0,-37.0,2.0,-46.0,7.0,-4.0,-35.0,-110.0,26.0,55.0,54.0,-81.0,-139.0,-141.0,-78.0,-58.0,-45.0,-63.0,-111.0,-112.0,-146.0,-184.0,-186.0,27.0,159.0,-23.0,-41.0,54.0,-196.0,-87.0,-79.0,-33.0,-80.0,-41.0,-71.0,2.0,-1.0,-2.0,-7.0,-3.0,99.0,-37.0,14.0,10.0,45.0,13.0,98.0,-35.0,-4.0,4.0,0.0
16:15:01.406 12/08/2009,-17.0,27.0,-18.0,-35.0,-25.0,-51.0,41.0,-90.0,-2.0,-12.0,-20.0,13.0,27.0,90.0,-40.0,1.0,16.0,-38.0,32.0,34.0,33.0,-74.0,47.0,77.0,88.0,-114.0,-97.0,-66.0,41.0,-59.0,-14.0,-34.0,-68.0,-58.0,-59.0,-63.0,74.0,84.0,115.0,26.0,79.0,-82.0,-118.0,107.0,-18.0,-75.0,-15.0,23.0,-11.0,51.0,36.0,24.0,14.0,-11.0,106.0,84.0,86.0,59.0,78.0,50.0,119.0,14.0,45.0,54.0,0.0
16:15:01.413 12/08/2009,33.0,72.0,25.0,10.0,-1.0,-66.0,-88.0,-32.0,58.0,33.0,13.0,33.0,4.0,-53.0,34.0,62.0,76.0,0.0,58.0,41.0,14.0,-69.0,30.0,97.0,82.0,-74.0,-65.0,-15.0,-19.0,-56.0,-121.0,1.0,-49.0,-53.0,-80.0,-95.0,-7.0,-7.0,147.0,-89.0,55.0,-49.0,-177.0,-52.0,2.0,-58.0,33.0,-2.0,-33.0,29.0,19.0,0.0,-11.0,-22.0,99.0,-61.0,21.0,14.0,34.0,-11.0,120.0,-40.0,-41.0,-35.0,0.0
16:15:01.419 12/08/2009,28.0,41.0,-29.0,-56.0,-75.0,-126.0,-78.0,-81.0,-3.0,-33.0,-56.0,-27.0,-41.0,-52.0,-62.0,-20.0,5.0,-76.0,-4.0,-12.0,-35.0,-98.0,50.0,97.0,20.0,-159.0,-109.0,-46.0,-74.0,-95.0,-18.0,11.0,-64.0,-65.0,-56.0,-36.0,39.0,-211.0,124.0,-98.0,53.0,-93.0,-153.0,15.0,-44.0,-20.0,-36.0,-19.0,-52.0,22.0,16.0,0.0,-4.0,-40.0,71.0,-14.0,32.0,26.0,48.0,5.0,121.0,-35.0,-25.0,-29.0,0.0
16:15:01.425 12/08/2009,-12.0,25.0,-18.0,-35.0,-31.0,-72.0,-19.0,-79.0,2.0,-16.0,-42.0,-2.0,-5.0,-1.0,-18.0,15.0,43.0,-36.0,34.0,27.0,-11.0,-47.0,76.0,145.0,167.0,-131.0,-41.0,-30.0,77.0,-23.0,34.0,16.0,-18.0,-23.0,-40.0,-48.0,58.0,133.0,171.0,145.0,24.0,35.0,-56.0,18.0,36.0,-38.0,8.0,28.0,-7.0,73.0,58.0,39.0,30.0,-3.0,81.0,0.0,61.0,47.0,64.0,24.0,115.0,-34.0,-23.0,-52.0,0.0
16:15:01.431 12/08/2009,64.0,80.0,11.0,-13.0,-13.0,-60.0,16.0,-35.0,26.0,1.0,-22.0,17.0,9.0,18.0,-4.0,16.0,41.0,-37.0,31.0,24.0,3.0,41.0,133.0,229.0,231.0,16.0,-19.0,8.0,109.0,31.0,78.0,32.0,-12.0,-30.0,-54.0,-40.0,-140.0,-13.0,183.0,-21.0,167.0,-61.0,-213.0,-33.0,-24.0,-48.0,78.0,63.0,-11.0,54.0,31.0,18.0,30.0,24.0,161.0,36.0,68.0,37.0,72.0,38.0,109.0,-34.0,-13.0,-26.0,0.0
16:15:01.438 12/08/2009,82.0,96.0,48.0,27.0,73.0,86.0,314.0,49.0,76.0,42.0,28.0,93.0,108.0,158.0,69.0,62.0,76.0,7.0,79.0,90.0,98.0,120.0,231.0,296.0,245.0,-8.0,37.0,96.0,131.0,-11.0,113.0,84.0,32.0,35.0,26.0,9.0,219.0,185.0,235.0,97.0,141.0,-109.0,-74.0,-3.0,47.0,-38.0,56.0,67.0,23.0,76.0,50.0,23.0,16.0,-1.0,92.0,59.0,87.0,56.0,67.0,63.0,108.0,-21.0,1.0,-22.0,0.0
16:15:01.444 12/08/2009,154.0,142.0,71.0,36.0,6.0,-84.0,-191.0,43.0,101.0,66.0,32.0,41.0,12.0,-24.0,78.0,90.0,102.0,19.0,72.0,44.0,0.0,204.0,313.0,341.0,295.0,122.0,92.0,97.0,149.0,-12.0,-13.0,175.0,102.0,94.0,78.0,87.0,206.0,64.0,219.0,44.0,99.0,-114.0,-70.0,22.0,51.0,-21.0,100.0,79.0,59.0,128.0,120.0,99.0,95.0,76.0,187.0,34.0,112.0,117.0,137.0,128.0,195.0,36.0,42.0,17.0,0.0
16:15:01.450 12/08/2009,124.0,162.0,107.0,89.0,112.0,88.0,214.0,-14.0,95.0,84.0,68.0,127.0,131.0,177.0,13.0,64.0,100.0,37.0,119.0,131.0,134.0,147.0,357.0,488.0,244.0,74.0,84.0,67.0,407.0,73.0,68.0,128.0,68.0,68.0,64.0,70.0,36.0,166.0,202.0,43.0,42.0,-67.0,-167.0,-81.0,-18.0,21.0,-38.0,8.0,-17.0,46.0,44.0,22.0,28.0,19.0,165.0,1.0,43.0,37.0,67.0,38.0,108.0,-32.0,-12.0,-32.0,0.0
16:15:01.456 12/08/2009,116.0,119.0,47.0,18.0,4.0,-45.0,39.0,2.0,71.0,37.0,-2.0,35.0,25.0,41.0,31.0,53.0,74.0,-4.0,68.0,59.0,56.0,437.0,548.0,586.0,594.0,291.0,175.0,242.0,446.0,314.0,276.0,239.0,188.0,161.0,127.0,96.0,244.0,222.0,403.0,23.0,229.0,-75.0,-20.0,70.0,120.0,-4.0,84.0,110.0,83.0,142.0,136.0,110.0,96.0,35.0,141.0,90.0,142.0,130.0,131.0,49.0,194.0,60.0,73.0,58.0,0.0
16:15:01.463 12/08/2009,183.0,229.0,169.0,153.0,164.0,132.0,271.0,87.0,150.0,122.0,101.0,146.0,140.0,110.0,83.0,101.0,125.0,54.0,126.0,107.0,73.0,501.0,594.0,619.0,624.0,248.0,225.0,345.0,536.0,190.0,214.0,186.0,169.0,178.0,169.0,166.0,251.0,272.0,284.0,134.0,135.0,-17.0,-121.0,73.0,22.0,6.0,-2.0,57.0,7.0,69.0,68.0,49.0,48.0,5.0,103.0,37.0,68.0,51.0,69.0,1.0,98.0,-40.0,-12.0,-61.0,0.0
16:15:01.469 12/08/2009,120.0,144.0,77.0,59.0,67.0,7.0,18.0,36.0,69.0,36.0,16.0,66.0,36.0,72.0,10.0,14.0,32.0,-34.0,33.0,22.0,5.0,453.0,533.0,612.0,615.0,202.0,163.0,113.0,394.0,193.0,158.0,173.0,133.0,134.0,139.0,162.0,145.0,-181.0,318.0,-26.0,3.0,-72.0,-11.0,-14.0,-46.0,-117.0,-46.0,22.0,-27.0,36.0,31.0,16.0,3.0,-38.0,66.0,1.0,56.0,31.0,51.0,14.0,108.0,-45.0,-36.0,-46.0,0.0
16:15:01.475 12/08/2009,178.0,194.0,134.0,126.0,140.0,104.0,152.0,72.0,130.0,110.0,92.0,135.0,124.0,43.0,112.0,126.0,140.0,69.0,136.0,122.0,104.0,605.0,630.0,615.0,637.0,408.0,345.0,432.0,627.0,426.0,432.0,366.0,315.0,294.0,271.0,263.0,270.0,411.0,481.0,299.0,244.0,119.0,73.0,86.0,177.0,120.0,206.0,204.0,151.0,209.0,192.0,169.0,161.0,134.0,293.0,129.0,199.0,174.0,175.0,112.0,261.0,102.0,102.0,87.0,0.0
16:15:01.481 12/08/2009,272.0,303.0,222.0,202.0,182.0,118.0,78.0,108.0,182.0,166.0,148.0,167.0,140.0,158.0,93.0,117.0,145.0,70.0,128.0,111.0,85.0,605.0,612.0,613.0,633.0,349.0,321.0,344.0,605.0,249.0,161.0,263.0,248.0,229.0,206.0,197.0,446.0,186.0,321.0,196.0,200.0,-6.0,-106.0,36.0,21.0,-43.0,-31.0,31.0,5.0,64.0,58.0,24.0,1.0,-44.0,33.0,-5.0,67.0,49.0,40.0,-35.0,121.0,-26.0,-21.0,-28.0,0.0
16:15:01.488 12/08/2009,225.0,225.0,147.0,122.0,112.0,68.0,145.0,95.0,140.0,108.0,70.0,99.0,74.0,49.0,69.0,90.0,106.0,28.0,79.0,54.0,11.0,612.0,616.0,612.0,629.0,339.0,357.0,463.0,596.0,342.0,351.0,338.0,284.0,265.0,242.0,211.0,239.0,287.0,352.0,79.0,265.0,-26.0,6.0,41.0,58.0,-73.0,44.0,89.0,64.0,117.0,114.0,94.0,67.0,18.0,60.0,60.0,133.0,122.0,123.0,106.0,191.0,46.0,54.0,45.0,0.0
16:15:01.494 12/08/2009,265.0,274.0,200.0,171.0,153.0,83.0,37.0,88.0,176.0,147.0,107.0,135.0,114.0,93.0,84.0,116.0,140.0,62.0,118.0,96.0,65.0,612.0,616.0,613.0,634.0,400.0,376.0,363.0,610.0,274.0,309.0,382.0,327.0,296.0,274.0,246.0,214.0,256.0,365.0,125.0,143.0,26.0,-53.0,98.0,85.0,-28.0,106.0,77.0,45.0,90.0,97.0,76.0,57.0,9.0,71.0,21.0,89.0,76.0,88.0,54.0,68.0,-48.0,-11.0,-86.0,0.0
16:15:01.500 12/08/2009,250.0,282.0,206.0,193.0,180.0,134.0,153.0,66.0,161.0,140.0,117.0,148.0,118.0,103.0,76.0,99.0,123.0,37.0,101.0,91.0,51.0,610.0,613.0,610.0,627.0,360.0,433.0,540.0,604.0,307.0,257.0,405.0,331.0,305.0,260.0,256.0,457.0,429.0,432.0,164.0,172.0,-30.0,-40.0,6.0,77.0,-49.0,29.0,54.0,21.0,68.0,80.0,62.0,53.0,32.0,126.0,-30.0,55.0,67.0,92.0,53.0,124.0,-16.0,1.0,-6.0,0.0
16:15:01.506 12/08/2009,259.0,262.0,182.0,163.0,153.0,97.0,124.0,73.0,140.0,127.0,103.0,133.0,103.0,84.0,78.0,97.0,120.0,41.0,114.0,98.0,71.0,614.0,617.0,614.0,627.0,451.0,466.0,473.0,605.0,509.0,393.0,367.0,344.0,343.0,317.0,298.0,505.0,266.0,463.0,11.0,219.0,47.0,73.0,51.0,133.0,33.0,159.0,139.0,112.0,173.0,186.0,168.0,153.0,121.0,205.0,133.0,199.0,192.0,205.0,172.0,268.0,119.0,135.0,154.0,0.0
16:15:01.513 12/08/2009,322.0,332.0,270.0,272.0,300.0,296.0,376.0,137.0,215.0,204.0,200.0,241.0,246.0,239.0,131.0,153.0,185.0,115.0,195.0,194.0,180.0,611.0,615.0,612.0,631.0,532.0,421.0,543.0,608.0,446.0,430.0,393.0,317.0,312.0,304.0,304.0,431.0,401.0,377.0,144.0,239.0,-15.0,-42.0,34.0,29.0,69.0,14.0,49.0,20.0,80.0,80.0,58.0,59.0,45.0,176.0,41.0,82.0,74.0,73.0,7.0,108.0,-31.0,-16.0,-76.0,0.0
16:15:01.519 12/08/2009,292.0,269.0,187.0,166.0,149.0,92.0,54.0,113.0,155.0,125.0,97.0,116.0,87.0,51.0,63.0,79.0,94.0,18.0,80.0,62.0,25.0,616.0,619.0,616.0,634.0,586.0,414.0,407.0,609.0,467.0,451.0,369.0,334.0,309.0,294.0,295.0,185.0,285.0,509.0,180.0,250.0,110.0,25.0,-7.0,16.0,-33.0,59.0,64.0,35.0,82.0,89.0,69.0,52.0,14.0,64.0,44.0,101.0,97.0,103.0,52.0,124.0,0.0,26.0,-21.0,0.0
16:15:01.525 12/08/2009,298.0,318.0,244.0,238.0,248.0,208.0,149.0,174.0,214.0,190.0,176.0,201.0,204.0,224.0,127.0,159.0,181.0,112.0,186.0,184.0,167.0,612.0,615.0,613.0,628.0,616.0,522.0,485.0,605.0,525.0,469.0,447.0,418.0,425.0,440.0,460.0,515.0,546.0,568.0,358.0,247.0,174.0,119.0,114.0,211.0,72.0,135.0,107.0,100.0,159.0,184.0,163.0,153.0,114.0,171.0,54.0,143.0,162.0,164.0,105.0,197.0,66.0,84.0,29.0,0.0
16:15:01.531 12/08/2009,296.0,304.0,229.0,221.0,221.0,187.0,246.0,79.0,166.0,148.0,147.0,167.0,143.0,92.0,76.0,92.0,125.0,48.0,110.0,99.0,51.0,615.0,618.0,616.0,634.0,485.0,378.0,428.0,587.0,426.0,446.0,326.0,304.0,271.0,240.0,229.0,383.0,186.0,488.0,90.0,218.0,-76.0,-91.0,-15.0,36.0,-45.0,14.0,47.0,35.0,87.0,102.0,84.0,71.0,48.0,173.0,48.0,103.0,108.0,106.0,38.0,166.0,21.0,27.0,11.0,0.0
16:15:01.538 12/08/2009,295.0,280.0,215.0,209.0,242.0,257.0,361.0,72.0,164.0,156.0,147.0,202.0,194.0,176.0,39.0,96.0,135.0,75.0,154.0,148.0,127.0,608.0,618.0,616.0,584.0,485.0,421.0,546.0,612.0,407.0,385.0,400.0,342.0,319.0,296.0,274.0,180.0,459.0,421.0,272.0,235.0,165.0,4.0,117.0,37.0,101.0,13.0,63.0,41.0,112.0,112.0,104.0,109.0,87.0,187.0,67.0,114.0,117.0,134.0,79.0,143.0,18.0,40.0,-5.0,0.0
16:15:01.544 12/08/2009,430.0,366.0,274.0,251.0,233.0,174.0,162.0,181.0,241.0,202.0,173.0,212.0,198.0,255.0,156.0,168.0,192.0,111.0,179.0,177.0,153.0,611.0,616.0,613.0,629.0,503.0,535.0,563.0,607.0,408.0,320.0,479.0,429.0,384.0,329.0,267.0,521.0,295.0,489.0,125.0,353.0,-211.0,5.0,63.0,137.0,-56.0,31.0,45.0,31.0,92.0,95.0,73.0,61.0,0.0,53.0,-6.0,74.0,77.0,80.0,36.0,130.0,3.0,13.0,22.0,0.0
16:15:01.550 12/08/2009,230.0,230.0,148.0,125.0,90.0,24.0,-22.0,29.0,103.0,80.0,60.0,89.0,36.0,-21.0,31.0,49.0,74.0,-1.0,65.0,50.0,27.0,616.0,621.0,579.0,631.0,276.0,315.0,395.0,547.0,375.0,372.0,314.0,256.0,228.0,200.0,144.0,98.0,447.0,373.0,144.0,282.0,79.0,-89.0,49.0,145.0,72.0,71.0,70.0,43.0,88.0,91.0,81.0,71.0,64.0,178.0,39.0,102.0,94.0,112.0,48.0,150.0,14.0,26.0,21.0,0.0
16:15:01.556 12/08/2009,267.0,250.0,183.0,165.0,153.0,93.0,12.0,102.0,148.0,134.0,112.0,139.0,108.0,60.0,72.0,106.0,123.0,53.0,124.0,113.0,102.0,612.0,616.0,590.0,615.0,421.0,419.0,447.0,569.0,445.0,519.0,391.0,344.0,319.0,302.0,293.0,480.0,403.0,449.0,172.0,425.0,-6.0,8.0,23.0,104.0,80.0,116.0,97.0,101.0,156.0,165.0,153.0,142.0,119.0,203.0,81.0,169.0,167.0,190.0,167.0,208.0,68.0,96.0,33.0,0.0
16:15:01.563 12/08/2009,349.0,336.0,279.0,269.0,264.0,229.0,180.0,167.0,237.0,222.0,197.0,228.0,201.0,181.0,187.0,191.0,203.0,115.0,186.0,170.0,150.0,584.0,618.0,617.0,636.0,523.0,410.0,393.0,544.0,456.0,550.0,365.0,327.0,292.0,253.0,244.0,174.0,271.0,410.0,102.0,235.0,50.0,80.0,-23.0,117.0,-11.0,176.0,136.0,90.0,124.0,114.0,88.0,68.0,13.0,66.0,91.0,138.0,100.0,83.0,32.0,134.0,7.0,21.0,-7.0,0.0
16:15:01.569 12/08/2009,232.0,240.0,181.0,175.0,171.0,156.0,197.0,42.0,131.0,121.0,105.0,146.0,131.0,149.0,40.0,73.0,101.0,30.0,96.0,80.0,42.0,496.0,574.0,518.0,520.0,439.0,335.0,501.0,545.0,352.0,339.0,250.0,240.0,224.0,195.0,144.0,333.0,364.0,314.0,85.0,61.0,60.0,3.0,-9.0,58.0,-39.0,4.0,15.0,3.0,72.0,60.0,55.0,53.0,23.0,142.0,17.0,84.0,79.0,83.0,47.0,158.0,17.0,21.0,42.0,0.0
16:15:01.575 12/08/2009,180.0,206.0,155.0,140.0,105.0,32.0,-138.0,2.0,122.0,123.0,89.0,126.0,90.0,76.0,60.0,99.0,135.0,54.0,131.0,115.0,95.0,581.0,543.0,455.0,636.0,453.0,394.0,456.0,518.0,479.0,399.0,333.0,297.0,293.0,272.0,206.0,385.0,388.0,408.0,182.0,237.0,128.0,52.0,52.0,113.0,53.0,73.0,77.0,72.0,139.0,142.0,133.0,138.0,107.0,221.0,59.0,126.0,124.0,152.0,159.0,151.0,15.0,46.0,-10.0,0.0
16:15:01.581 12/08/2009,232.0,271.0,224.0,217.0,219.0,192.0,115.0,91.0,181.0,179.0,162.0,207.0,194.0,206.0,110.0,136.0,160.0,88.0,178.0,172.0,142.0,533.0,464.0,478.0,541.0,337.0,346.0,385.0,478.0,279.0,317.0,285.0,253.0,252.0,249.0,255.0,462.0,294.0,328.0,153.0,298.0,-41.0,-121.0,-69.0,68.0,6.0,101.0,60.0,3.0,52.0,59.0,43.0,50.0,-2.0,73.0,-42.0,32.0,31.0,44.0,-33.0,63.0,-56.0,-31.0,-31.0,0.0
16:15:01.588 12/08/2009,166.0,185.0,120.0,107.0,99.0,75.0,23.0,44.0,92.0,82.0,63.0,102.0,89.0,114.0,39.0,55.0,73.0,6.0,96.0,89.0,79.0,362.0,435.0,395.0,364.0,251.0,238.0,223.0,446.0,114.0,177.0,252.0,211.0,185.0,165.0,188.0,114.0,119.0,305.0,-30.0,133.0,-105.0,-87.0,46.0,77.0,-14.0,65.0,48.0,21.0,81.0,88.0,82.0,88.0,42.0,130.0,48.0,93.0,87.0,84.0,-5.0,133.0,2.0,19.0,11.0,0.0
16:15:01.594 12/08/2009,246.0,235.0,172.0,161.0,184.0,194.0,234.0,26.0,128.0,130.0,118.0,154.0,157.0,184.0,54.0,98.0,130.0,60.0,136.0,119.0,63.0,407.0,525.0,470.0,354.0,312.0,267.0,324.0,498.0,251.0,135.0,303.0,249.0,233.0,236.0,253.0,283.0,298.0,346.0,174.0,342.0,60.0,-46.0,29.0,22.0,-8.0,8.0,58.0,50.0,114.0,114.0,99.0,93.0,32.0,83.0,30.0,108.0,101.0,102.0,29.0,151.0,16.0,39.0,21.0,0.0
16:15:01.600 12/08/2009,301.0,264.0,171.0,128.0,119.0,71.0,-73.0,155.0,157.0,118.0,75.0,98.0,50.0,43.0,71.0,83.0,81.0,0.0,59.0,34.0,7.0,247.0,337.0,274.0,274.0,201.0,155.0,224.0,363.0,243.0,176.0,221.0,153.0,91.0,27.0,-3.0,-111.0,133.0,337.0,-124.0,288.0,-64.0,-77.0,55.0,69.0,-84.0,73.0,35.0,-8.0,42.0,24.0,5.0,-9.0,-50.0,34.0,27.0,76.0,34.0,31.0,-25.0,91.0,-42.0,-33.0,-34.0,0.0
16:15:01.606 12/08/2009,155.0,154.0,86.0,52.0,51.0,25.0,-12.0,36.0,98.0,72.0,43.0,74.0,68.0,92.0,84.0,97.0,100.0,15.0,82.0,76.0,58.0,260.0,331.0,265.0,274.0,61.0,178.0,300.0,282.0,215.0,246.0,221.0,159.0,143.0,137.0,112.0,422.0,227.0,251.0,139.0,206.0,191.0,-20.0,91.0,116.0,132.0,136.0,141.0,77.0,143.0,125.0,106.0,109.0,90.0,225.0,178.0,176.0,122.0,125.0,81.0,164.0,44.0,52.0,53.0,0.0
16:15:01.613 12/08/2009,235.0,201.0,138.0,112.0,111.0,90.0,7.0,22.0,125.0,101.0,76.0,106.0,67.0,45.0,27.0,80.0,101.0,21.0,79.0,59.0,24.0,203.0,330.0,223.0,223.0,206.0,143.0,149.0,298.0,194.0,293.0,145.0,88.0,77.0,61.0,43.0,139.0,183.0,276.0,109.0,67.0,-162.0,-48.0,-78.0,-2.0,-180.0,-42.0,-32.0,-56.0,15.0,10.0,-25.0,-38.0,-84.0,10.0,-62.0,27.0,15.0,10.0,-15.0,120.0,-27.0,-14.0,2.0,0.0
16:15:01.619 12/08/2009,71.0,74.0,11.0,-3.0,9.0,1.0,36.0,-68.0,15.0,1.0,-24.0,22.0,7.0,7.0,-16.0,10.0,22.0,-47.0,30.0,6.0,-7.0,173.0,252.0,240.0,202.0,190.0,139.0,56.0,436.0,133.0,191.0,102.0,90.0,89.0,86.0,96.0,160.0,190.0,222.0,122.0,147.0,-7.0,30.0,6.0,46.0,-5.0,30.0,36.0,-5.0,56.0,52.0,37.0,42.0,32.0,131.0,30.0,81.0,56.0,84.0,81.0,120.0,-12.0,13.0,12.0,0.0
16:15:01.625 12/08/2009,140.0,129.0,70.0,54.0,53.0,16.0,-87.0,-1.0,65.0,47.0,32.0,57.0,29.0,29.0,7.0,40.0,60.0,-8.0,56.0,34.0,11.0,227.0,167.0,74.0,168.0,131.0,144.0,236.0,234.0,229.0,211.0,126.0,97.0,99.0,86.0,67.0,96.0,142.0,256.0,109.0,145.0,-31.0,-44.0,-3.0,105.0,-15.0,108.0,55.0,13.0,79.0,78.0,65.0,64.0,36.0,139.0,49.0,100.0,96.0,102.0,52.0,154.0,48.0,72.0,101.0,0.0
16:15:01.631 12/08/2009,130.0,156.0,103.0,103.0,109.0,96.0,67.0,18.0,100.0,83.0,72.0,115.0,91.0,97.0,76.0,74.0,88.0,30.0,97.0,78.0,61.0,168.0,249.0,192.0,233.0,149.0,111.0,253.0,348.0,-1.0,100.0,119.0,76.0,73.0,62.0,65.0,77.0,219.0,180.0,4.0,114.0,-43.0,-123.0,-60.0,-48.0,-39.0,-105.0,-49.0,-71.0,-5.0,3.0,-6.0,1.0,-12.0,78.0,-71.0,-10.0,-4.0,30.0,-3.0,33.0,-82.0,-52.0,-93.0,0.0
16:15:01.638 12/08/2009,104.0,103.0,37.0,26.0,32.0,26.0,10.0,-72.0,30.0,20.0,6.0,49.0,26.0,7.0,-65.0,-7.0,31.0,-20.0,52.0,35.0,10.0,71.0,263.0,159.0,266.0,80.0,107.0,220.0,342.0,148.0,27.0,180.0,113.0,108.0,111.0,110.0,265.0,20.0,274.0,74.0,251.0,3.0,-125.0,-6.0,48.0,-5.0,39.0,49.0,24.0,99.0,100.0,99.0,104.0,100.0,201.0,35.0,109.0,104.0,157.0,178.0,172.0,40.0,61.0,90.0,0.0
16:15:01.644 12/08/2009,207.0,222.0,162.0,153.0,185.0,202.0,177.0,91.0,166.0,146.0,124.0,173.0,169.0,177.0,122.0,145.0,162.0,92.0,165.0,152.0,130.0,113.0,244.0,202.0,15.0,141.0,175.0,94.0,348.0,147.0,110.0,235.0,164.0,131.0,102.0,117.0,-60.0,105.0,344.0,5.0,384.0,-46.0,-23.0,31.0,135.0,66.0,150.0,139.0,93.0,147.0,125.0,97.0,89.0,50.0,126.0,87.0,151.0,108.0,98.0,43.0,169.0,19.0,35.0,-20.0,0.0
16:15:01.650 12/08/2009,269.0,222.0,127.0,84.0,60.0,13.0,-139.0,123.0,162.0,119.0,67.0,94.0,41.0,3.0,97.0,112.0,115.0,30.0,82.0,38.0,7.0,149.0,216.0,183.0,107.0,93.0,80.0,32.0,235.0,52.0,134.0,152.0,93.0,74.0,66.0,75.0,-138.0,27.0,254.0,-16.0,84.0,10.0,-71.0,5.0,13.0,-106.0,31.0,52.0,18.0,68.0,51.0,32.0,18.0,-42.0,8.0,74.0,98.0,60.0,41.0,-50.0,97.0,-25.0,-15.0,-21.0,0.0
16:15:01.656 12/08/2009,164.0,176.0,127.0,114.0,133.0,155.0,308.0,37.0,133.0,124.0,88.0,145.0,145.0,149.0,91.0,119.0,137.0,61.0,128.0,105.0,82.0,134.0,246.0,225.0,299.0,131.0,175.0,175.0,315.0,177.0,276.0,249.0,184.0,166.0,139.0,133.0,91.0,65.0,306.0,116.0,303.0,15.0,-12.0,92.0,168.0,-32.0,163.0,126.0,88.0,126.0,119.0,100.0,94.0,70.0,156.0,49.0,140.0,116.0,115.0,82.0,174.0,25.0,30.0,-14.0,0.0
16:15:01.663 12/08/2009,257.0,258.0,184.0,147.0,87.0,-2.0,-116.0,95.0,181.0,156.0,117.0,127.0,90.0,105.0,121.0,140.0,153.0,76.0,132.0,107.0,85.0,157.0,228.0,239.0,127.0,191.0,194.0,255.0,464.0,167.0,227.0,219.0,169.0,161.0,115.0,74.0,237.0,223.0,282.0,-120.0,194.0,-177.0,-12.0,-90.0,44.0,-12.0,73.0,97.0,44.0,86.0,86.0,61.0,63.0,32.0,131.0,74.0,105.0,57.0,52.0,-45.0,110.0,-21.0,-16.0,-27.0,0.0
16:15:01.669 12/08/2009,89.0,154.0,107.0,93.0,81.0,65.0,135.0,14.0,92.0,71.0,46.0,77.0,37.0,48.0,29.0,50.0,64.0,-9.0,41.0,6.0,-22.0,62.0,99.0,118.0,78.0,-12.0,95.0,79.0,305.0,130.0,145.0,140.0,88.0,56.0,9.0,-30.0,-49.0,112.0,290.0,-21.0,338.0,-25.0,-72.0,31.0,17.0,3.0,6.0,13.0,-4.0,36.0,38.0,24.0,18.0,-6.0,59.0,-59.0,52.0,45.0,74.0,57.0,82.0,-32.0,12.0,-37.0,0.0
16:15:01.675 12/08/2009,224.0,202.0,130.0,101.0,75.0,29.0,-5.0,94.0,157.0,116.0,82.0,99.0,75.0,3.0,103.0,126.0,136.0,65.0,115.0,95.0,71.0,129.0,161.0,193.0,232.0,223.0,139.0,128.0,285.0,73.0,73.0,169.0,122.0,121.0,100.0,118.0,243.0,181.0,282.0,43.0,234.0,108.0,23.0,-58.0,182.0,115.0,155.0,123.0,74.0,104.0,105.0,93.0,97.0,70.0,156.0,79.0,114.0,97.0,107.0,62.0,109.0,4.0,37.0,11.0,0.0
16:15:01.681 12/08/2009,79.0,140.0,96.0,81.0,69.0,35.0,-41.0,-29.0,98.0,86.0,70.0,102.0,93.0,181.0,42.0,73.0,94.0,41.0,92.0,97.0,113.0,81.0,161.0,106.0,136.0,81.0,57.0,185.0,324.0,52.0,13.0,87.0,50.0,46.0,23.0,-7.0,-21.0,108.0,168.0,98.0,169.0,-52.0,-69.0,-1.0,23.0,-120.0,43.0,69.0,15.0,37.0,31.0,20.0,7.0,-32.0,54.0,16.0,63.0,35.0,22.0,-44.0,46.0,-65.0,-55.0,-45.0,0.0
16:15:01.688 12/08/2009,186.0,143.0,79.0,56.0,53.0,36.0,21.0,71.0,116.0,77.0,47.0,83.0,51.0,25.0,58.0,83.0,94.0,24.0,86.0,57.0,40.0,67.0,183.0,203.0,77.0,56.0,103.0,102.0,447.0,79.0,128.0,135.0,92.0,85.0,63.0,51.0,128.0,-39.0,213.0,118.0,187.0,-69.0,-71.0,-1.0,70.0,-6.0,-39.0,15.0,9.0,78.0,83.0,79.0,79.0,65.0,220.0,-2.0,70.0,94.0,91.0,8.0,155.0,-1.0,3.0,-37.0,0.0
16:15:01.694 12/08/2009,94.0,136.0,97.0,69.0,63.0,24.0,48.0,-53.0,89.0,89.0,62.0,102.0,86.0,83.0,17.0,81.0,125.0,62.0,126.0,107.0,83.0,79.0,181.0,176.0,224.0,66.0,104.0,216.0,234.0,163.0,95.0,174.0,136.0,130.0,108.0,101.0,215.0,289.0,210.0,255.0,74.0,20.0,107.0,12.0,89.0,-20.0,110.0,122.0,94.0,144.0,153.0,144.0,134.0,64.0,68.0,91.0,155.0,153.0,144.0,89.0,193.0,57.0,61.0,44.0,0.0
16:15:01.700 12/08/2009,203.0,211.0,164.0,143.0,154.0,125.0,148.0,53.0,150.0,136.0,112.0,149.0,116.0,147.0,84.0,107.0,126.0,54.0,116.0,76.0,24.0,-2.0,122.0,56.0,171.0,136.0,73.0,31.0,227.0,30.0,168.0,110.0,71.0,53.0,32.0,10.0,-107.0,-30.0,185.0,-157.0,329.0,-321.0,-130.0,-15.0,130.0,-242.0,81.0,71.0,10.0,50.0,45.0,35.0,26.0,-27.0,11.0,37.0,92.0,63.0,69.0,40.0,134.0,-5.0,2.0,-11.0,0.0
16:15:01.706 12/08/2009,171.0,150.0,86.0,64.0,55.0,4.0,-36.0,63.0,123.0,89.0,59.0,81.0,54.0,12.0,108.0,97.0,109.0,43.0,107.0,71.0,42.0,40.0,96.0,148.0,10.0,58.0,108.0,103.0,296.0,71.0,33.0,162.0,119.0,110.0,81.0,72.0,3.0,-56.0,333.0,-24.0,314.0,1.0,26.0,-7.0,56.0,45.0,36.0,59.0,25.0,84.0,89.0,86.0,74.0,24.0,87.0,39.0,98.0,95.0,82.0,5.0,155.0,21.0,34.0,27.0,0.0
16:15:01.713 12/08/2009,152.0,160.0,108.0,91.0,80.0,41.0,-8.0,15.0,93.0,76.0,55.0,83.0,55.0,39.0,18.0,49.0,79.0,22.0,83.0,73.0,86.0,-5.0,63.0,113.0,110.0,-6.0,74.0,82.0,150.0,51.0,163.0,117.0,70.0,61.0,40.0,33.0,120.0,187.0,230.0,214.0,357.0,188.0,-12.0,68.0,105.0,104.0,99.0,63.0,1.0,47.0,46.0,63.0,73.0,68.0,182.0,16.0,70.0,64.0,102.0,122.0,111.0,-27.0,4.0,-28.0,0.0
16:15:01.719 12/08/2009,138.0,119.0,56.0,25.0,8.0,-67.0,-135.0,6.0,63.0,28.0,-1.0,23.0,-32.0,-61.0,-1.0,5.0,24.0,-44.0,4.0,-37.0,-70.0,-192.0,-54.0,14.0,-27.0,-23.0,-7.0,-58.0,234.0,-89.0,3.0,63.0,1.0,-30.0,-59.0,-32.0,-26.0,17.0,77.0,-142.0,152.0,-223.0,-128.0,-63.0,39.0,-157.0,70.0,48.0,-29.0,10.0,-2.0,-8.0,-33.0,-89.0,-13.0,80.0,76.0,46.0,31.0,-46.0,127.0,-2.0,18.0,63.0,0.0
16:15:01.725 12/08/2009,86.0,88.0,33.0,7.0,17.0,-24.0,-101.0,17.0,73.0,35.0,10.0,50.0,28.0,10.0,53.0,61.0,77.0,7.0,74.0,55.0,45.0,-32.0,33.0,87.0,-8.0,-24.0,50.0,119.0,256.0,44.0,51.0,138.0,47.0,46.0,31.0,60.0,167.0,-24.0,277.0,12.0,326.0,2.0,-12.0,-30.0,84.0,18.0,97.0,92.0,27.0,77.0,73.0,72.0,72.0,37.0,169.0,93.0,123.0,98.0,102.0,77.0,187.0,23.0,34.0,23.0,0.0
16:15:01.731 12/08/2009,158.0,122.0,58.0,21.0,23.0,-4.0,-37.0,27.0,81.0,46.0,24.0,55.0,42.0,116.0,27.0,44.0,64.0,3.0,63.0,65.0,68.0,-114.0,24.0,55.0,107.0,-87.0,-77.0,-110.0,338.0,4.0,-42.0,28.0,-35.0,-56.0,-82.0,-76.0,-200.0,201.0,166.0,-9.0,263.0,-334.0,-147.0,-64.0,26.0,-100.0,-10.0,1.0,-52.0,5.0,12.0,11.0,4.0,-32.0,53.0,-35.0,32.0,34.0,22.0,-42.0,100.0,-45.0,-30.0,-22.0,0.0
16:15:01.738 12/08/2009,52.0,32.0,4.0,-6.0,41.0,55.0,200.0,-63.0,5.0,-1.0,2.0,63.0,66.0,134.0,-69.0,-23.0,19.0,-30.0,41.0,37.0,37.0,-90.0,-2.0,-6.0,108.0,-76.0,-20.0,74.0,162.0,-79.0,-43.0,17.0,-29.0,-20.0,-34.0,-36.0,-81.0,0.0,138.0,-119.0,76.0,39.0,24.0,-50.0,25.0,-18.0,-8.0,12.0,-49.0,17.0,13.0,9.0,4.0,-23.0,96.0,49.0,73.0,59.0,49.0,18.0,107.0,-20.0,13.0,7.0,0.0
16:15:01.744 12/08/2009,79.0,53.0,11.0,-13.0,-26.0,-107.0,-280.0,-36.0,31.0,15.0,-2.0,12.0,-31.0,-88.0,9.0,33.0,64.0,-5.0,52.0,25.0,10.0,-97.0,7.0,68.0,191.0,-72.0,-10.0,87.0,336.0,-1.0,-26.0,44.0,7.0,16.0,8.0,12.0,225.0,197.0,253.0,163.0,325.0,0.0,-56.0,2.0,25.0,-39.0,34.0,62.0,8.0,69.0,73.0,71.0,70.0,40.0,116.0,58.0,95.0,86.0,113.0,110.0,123.0,1.0,34.0,14.0,0.0
16:15:01.750 12/08/2009,196.0,117.0,60.0,51.0,72.0,59.0,144.0,61.0,76.0,50.0,41.0,98.0,105.0,208.0,36.0,39.0,64.0,6.0,78.0,81.0,106.0,-80.0,-13.0,-16.0,129.0,6.0,34.0,107.0,260.0,17.0,191.0,81.0,41.0,40.0,41.0,61.0,20.0,69.0,179.0,-193.0,207.0,-45.0,-79.0,-72.0,51.0,-36.0,54.0,21.0,-62.0,-10.0,1.0,-23.0,-20.0,-64.0,12.0,-46.0,6.0,-3.0,-17.0,-91.0,59.0,-90.0,-86.0,-78.0,0.0
16:15:01.756 12/08/2009,79.0,17.0,-29.0,-53.0,-56.0,-116.0,-62.0,-121.0,-31.0,-42.0,-61.0,-48.0,-85.0,-95.0,-33.0,-27.0,-5.0,-68.0,-23.0,-62.0,-97.0,-148.0,-29.0,94.0,-33.0,-40.0,-51.0,-59.0,351.0,-16.0,-13.0,39.0,-15.0,-20.0,-36.0,-26.0,-228.0,114.0,82.0,144.0,162.0,-193.0,-34.0,102.0,110.0,-94.0,181.0,75.0,21.0,80.0,100.0,94.0,100.0,97.0,247.0,25.0,108.0,117.0,151.0,138.0,167.0,32.0,61.0,58.0,0.0
16:15:01.763 12/08/2009,153.0,147.0,122.0,117.0,167.0,159.0,211.0,52.0,117.0,107.0,103.0,152.0,161.0,172.0,55.0,90.0,117.0,64.0,120.0,125.0,133.0,-143.0,-10.0,98.0,50.0,-78.0,-13.0,-52.0,171.0,-60.0,-152.0,42.0,-15.0,-11.0,-24.0,2.0,51.0,-114.0,180.0,-82.0,363.0,-29.0,-157.0,-93.0,-42.0,-39.0,-21.0,8.0,-62.0,-4.0,-15.0,-52.0,-64.0,-128.0,-103.0,-22.0,10.0,-18.0,-42.0,-77.0,78.0,-68.0,-64.0,-3.0,0.0
16:15:01.769 12/08/2009,64.0,19.0,-45.0,-95.0,-147.0,-274.0,-422.0,-86.0,-19.0,-50.0,-92.0,-92.0,-168.0,-225.0,-78.0,-53.0,-33.0,-106.0,-79.0,-117.0,-142.0,-319.0,-126.0,-24.0,-143.0,-168.0,-96.0,-40.0,201.0,-132.0,-29.0,2.0,-63.0,-89.0,-130.0,-181.0,-110.0,40.0,18.0,-32.0,48.0,-84.0,-61.0,0.0,-27.0,-154.0,-90.0,-63.0,-103.0,-34.0,-32.0,-41.0,-47.0,-60.0,29.0,-59.0,-11.0,-14.0,10.0,-1.0,35.0,-98.0,-60.0,-101.0,0.0
16:15:01.775 12/08/2009,7.0,24.0,12.0,-4.0,1.0,-50.0,-98.0,-123.0,-3.0,4.0,-1.0,22.0,4.0,11.0,-53.0,-12.0,29.0,-32.0,22.0,11.0,17.0,-181.0,-31.0,95.0,115.0,-55.0,31.0,22.0,357.0,-53.0,-55.0,71.0,34.0,43.0,23.0,18.0,22.0,126.0,146.0,27.0,184.0,-49.0,-58.0,-150.0,105.0,89.0,64.0,72.0,8.0,80.0,69.0,63.0,60.0,30.0,129.0,73.0,104.0,96.0,100.0,65.0,167.0,18.0,37.0,29.0,0.0
16:15:01.781 12/08/2009,97.0,103.0,70.0,59.0,68.0,8.0,-6.0,-16.0,63.0,43.0,36.0,71.0,52.0,77.0,21.0,37.0,51.0,-11.0,43.0,41.0,58.0,-75.0,-13.0,121.0,145.0,-145.0,-88.0,24.0,386.0,-116.0,-126.0,7.0,-74.0,-71.0,-88.0,-59.0,84.0,193.0,131.0,39.0,196.0,-165.0,-216.0,-41.0,-144.0,-157.0,-37.0,-4.0,-96.0,-31.0,-42.0,-59.0,-84.0,-111.0,-7.0,-22.0,-15.0,-41.0,-51.0,-112.0,1.0,-122.0,-102.0,-96.0,0.0
16:15:01.788 12/08/2009,58.0,14.0,-36.0,-73.0,-95.0,-174.0,-223.0,-33.0,-4.0,-35.0,-78.0,-52.0,-96.0,-96.0,-31.0,-23.0,-5.0,-84.0,-32.0,-64.0,-77.0,-153.0,-48.0,20.0,-72.0,-113.0,-129.0,-148.0,246.0,-77.0,-74.0,6.0,-70.0,-86.0,-120.0,-151.0,-75.0,-148.0,120.0,-71.0,102.0,-157.0,-98.0,-91.0,63.0,-24.0,28.0,-7.0,-44.0,40.0,43.0,43.0,37.0,46.0,157.0,-47.0,45.0,67.0,98.0,71.0,148.0,14.0,40.0,69.0,0.0
16:15:01.794 12/08/2009,105.0,84.0,55.0,40.0,55.0,18.0,33.0,-77.0,46.0,48.0,39.0,69.0,59.0,81.0,-20.0,35.0,78.0,13.0,64.0,56.0,52.0,-88.0,-23.0,32.0,296.0,-25.0,-10.0,9.0,370.0,68.0,164.0,77.0,22.0,5.0,-12.0,17.0,18.0,152.0,191.0,7.0,267.0,-4.0,-130.0,-20.0,-6.0,6.0,-31.0,-2.0,-43.0,42.0,45.0,29.0,22.0,-7.0,70.0,1.0,44.0,54.0,51.0,14.0,116.0,-12.0,4.0,23.0,0.0
16:15:01.800 12/08/2009,72.0,52.0,3.0,-23.0,-27.0,-91.0,-141.0,-60.0,2.0,-8.0,-34.0,-8.0,-46.0,-27.0,-42.0,-13.0,12.0,-62.0,-14.0,-40.0,-50.0,-230.0,-97.0,35.0,55.0,-221.0,-106.0,-49.0,223.0,-126.0,-59.0,-32.0,-71.0,-87.0,-112.0,-117.0,-260.0,5.0,100.0,-90.0,296.0,-180.0,-145.0,-130.0,1.0,-157.0,48.0,-5.0,-73.0,3.0,7.0,3.0,-14.0,-28.0,38.0,-36.0,21.0,39.0,46.0,13.0,72.0,-51.0,-24.0,-63.0,0.0
16:15:01.806 12/08/2009,44.0,43.0,6.0,-5.0,14.0,-15.0,19.0,-58.0,14.0,7.0,-12.0,25.0,33.0,127.0,-12.0,14.0,34.0,-18.0,40.0,43.0,58.0,-199.0,-61.0,64.0,-23.0,-86.0,-70.0,-9.0,293.0,-77.0,-60.0,-21.0,-62.0,-67.0,-97.0,-105.0,-241.0,-41.0,145.0,-151.0,207.0,-269.0,-118.0,17.0,45.0,-48.0,26.0,-17.0,-62.0,21.0,33.0,22.0,24.0,25.0,162.0,-49.0,17.0,45.0,59.0,65.0,71.0,-52.0,-35.0,-25.0,0.0
16:15:01.813 12/08/2009,53.0,39.0,-2.0,-20.0,2.0,-33.0,-5.0,-54.0,15.0,-7.0,-27.0,11.0,12.0,41.0,-20.0,5.0,25.0,-43.0,21.0,3.0,20.0,-151.0,-22.0,69.0,32.0,-120.0,-49.0,-21.0,458.0,-81.0,-102.0,19.0,-12.0,-10.0,-16.0,16.0,13.0,-195.0,190.0,18.0,337.0,26.0,-147.0,-167.0,-13.0,6.0,-16.0,6.0,-46.0,31.0,41.0,15.0,6.0,-24.0,31.0,20.0,59.0,62.0,40.0,-53.0,127.0,-13.0,-12.0,12.0,0.0
16:15:01.819 12/08/2009,170.0,107.0,58.0,53.0,112.0,140.0,206.0,-7.0,32.0,20.0,3.0,67.0,69.0,144.0,-29.0,-7.0,5.0,-56.0,11.0,10.0,14.0,-261.0,-39.0,120.0,11.0,-122.0,-80.0,-10.0,318.0,-184.0,-347.0,-5.0,-77.0,-88.0,-122.0,-134.0,-36.0,205.0,11.0,-182.0,255.0,-169.0,-89.0,-39.0,-31.0,-102.0,72.0,-1.0,-81.0,-16.0,-15.0,-49.0,-44.0,-48.0,95.0,-23.0,21.0,0.0,3.0,-46.0,24.0,-81.0,-54.0,-46.0,0.0
16:15:01.825 12/08/2009,167.0,49.0,-19.0,-53.0,-77.0,-141.0,-114.0,1.0,27.0,-3.0,-50.0,-39.0,-59.0,-79.0,28.0,38.0,35.0,-48.0,7.0,-13.0,-29.0,-157.0,-25.0,84.0,129.0,-168.0,-82.0,-114.0,441.0,-120.0,10.0,11.0,-40.0,-55.0,-92.0,-115.0,-149.0,138.0,90.0,139.0,56.0,-31.0,-75.0,-78.0,49.0,-56.0,-15.0,-20.0,-62.0,40.0,51.0,20.0,12.0,-31.0,36.0,-6.0,46.0,62.0,57.0,21.0,115.0,-25.0,-5.0,-72.0,0.0
16:15:01.831 12/08/2009,4.0,4.0,-18.0,-42.0,-49.0,-120.0,-268.0,-174.0,-38.0,-31.0,-42.0,-15.0,-47.0,-43.0,-76.0,-25.0,4.0,-50.0,2.0,-9.0,-18.0,-204.0,-67.0,89.0,60.0,-117.0,-72.0,37.0,421.0,-121.0,-109.0,-14.0,-70.0,-73.0,-88.0,-100.0,23.0,-10.0,101.0,7.0,165.0,-197.0,-78.0,-42.0,-13.0,-46.0,12.0,27.0,-58.0,24.0,20.0,-5.0,-10.0,-26.0,69.0,37.0,52.0,52.0,36.0,-16.0,106.0,-30.0,-20.0,-25.0,0.0
16:15:01.838 12/08/2009,40.0,-1.0,-44.0,-72.0,-60.0,-109.0,-65.0,-107.0,-27.0,-34.0,-58.0,-25.0,-52.0,-45.0,-37.0,-6.0,9.0,-53.0,1.0,-19.0,-21.0,-252.0,-59.0,45.0,2.0,-185.0,-124.0,-180.0,370.0,-93.0,-106.0,32.0,-63.0,-84.0,-117.0,-91.0,-93.0,-14.0,95.0,-11.0,202.0,-20.0,-100.0,-23.0,16.0,-70.0,66.0,87.0,36.0,123.0,128.0,107.0,93.0,63.0,122.0,139.0,161.0,177.0,185.0,198.0,220.0,97.0,123.0,81.0,0.0
16:15:01.844 12/08/2009,147.0,125.0,98.0,73.0,92.0,43.0,-8.0,60.0,134.0,126.0,103.0,140.0,137.0,155.0,142.0,175.0,185.0,123.0,181.0,172.0,188.0,-159.0,6.0,108.0,196.0,-26.0,1.0,50.0,403.0,-32.0,83.0,61.0,22.0,28.0,11.0,33.0,88.0,25.0,186.0,83.0,315.0,-61.0,7.0,-56.0,129.0,40.0,148.0,131.0,53.0,122.0,124.0,89.0,86.0,43.0,163.0,69.0,128.0,139.0,100.0,32.0,225.0,75.0,59.0,116.0,0.0
